time (s)	coil I (A)	last det (V)	int current (uC)
7158.573292	0.496979	454.101562	-69.238281
7158.575295	0.496661	454.101562	-69.238281
7158.577296	0.495509	5.450601	0.532035
7159.599303	0.333839	131.542969	330.468750
7159.603304	0.496586	131.542969	330.468750
7159.605307	0.495360	5.448961	0.477402
7160.645372	0.497185	447.070312	-67.578125
7160.647374	0.495695	447.070312	-67.578125
7160.649373	0.494690	5.441588	0.535515
7161.681409	0.438861	132.324219	328.125000
7161.683412	0.497678	132.324219	328.125000
7161.687410	0.494995	5.444947	0.495384
7162.721436	0.498591	428.125000	-65.917969
7162.723437	0.497179	5.468964	0.528325
7163.761505	0.497689	140.917969	299.707031
7163.763507	0.496047	5.456512	0.499756
7164.792069	0.497871	417.773437	-75.390625
7164.794071	0.496152	5.457673	0.538481
7165.838145	0.497260	138.378906	304.589844
7165.840146	0.496254	5.458790	0.508835
7166.872693	0.448268	412.011719	-79.296875
7166.874693	0.497818	412.011719	-79.296875
7166.876696	0.496200	5.458196	0.488929
7167.912749	0.417252	134.960937	310.156250
7167.914751	0.497628	134.960937	310.156250
7167.916751	0.495773	5.453508	0.519750
7168.950815	0.441533	409.863281	-79.394531
7168.952816	0.497759	409.863281	-79.394531
7168.956816	0.495044	5.445478	0.493082
7169.982884	0.430102	139.648437	297.167969
7169.984888	0.497596	139.648437	297.167969
7169.986888	0.495846	5.454305	0.531223
7171.031822	0.461245	416.699219	-80.468750
7171.033825	0.497684	416.699219	-80.468750
7171.035824	0.496198	5.458179	0.491730
7172.060379	0.405827	133.300781	316.406250
7172.064380	0.496621	133.300781	316.406250
7172.066382	0.495558	5.451141	0.541454
7173.108456	0.407262	418.066406	-75.000000
7173.110458	0.498654	418.066406	-75.000000
7173.112458	0.497067	5.467732	0.515174
7174.134506	0.457785	133.593750	314.355469
7174.136507	0.497510	133.593750	314.355469
7174.138507	0.495937	5.455307	0.536297
7175.186552	0.321611	427.539062	-73.144531
7175.188553	0.328602	427.539062	-73.144531
7175.190555	0.496135	5.457487	0.497877
7176.210660	0.497213	131.445312	321.191406
7176.212662	0.496942	131.445312	321.191406
7176.214662	0.495690	5.452586	0.532235
7177.268731	0.498091	442.480469	-74.316406
7177.270734	0.496747	5.464222	0.533326
7178.287679	0.443715	138.476562	303.710937
7178.289682	0.497313	138.476562	303.710937
7178.291682	0.495591	5.451496	0.522270
7179.341709	0.468551	442.089844	-68.750000
7179.343711	0.497045	442.089844	-68.750000
7179.345711	0.495585	5.451434	0.523768
7180.361742	0.302709	127.246094	334.375000
7180.363743	0.493282	127.246094	334.375000
7180.365742	0.496432	5.460748	0.534549
7181.417734	0.343836	450.292969	-70.996094
7181.419737	0.496620	450.292969	-70.996094
7181.421738	0.496353	5.459880	0.511409
7182.442331	0.497418	137.695312	307.421875
7182.444332	0.496301	5.459312	0.512141
7183.495297	0.396960	450.585937	-66.796875
7183.497300	0.498186	450.585937	-66.796875
7183.499301	0.496569	5.462255	0.527833
7184.519323	1.216774	136.035156	309.375000
7184.521327	0.497182	136.035156	309.375000
7184.523329	0.495506	5.450565	0.522015
7185.570322	0.440121	457.519531	-72.460937
7185.572324	0.497269	457.519531	-72.460937
7185.574325	0.495645	5.452099	0.532223
7186.594331	0.497998	125.292969	339.550781
7186.596332	0.496407	5.460482	0.529357
7187.648347	0.419898	447.851562	-65.820312
7187.650350	0.497763	447.851562	-65.820312
7187.652350	0.496080	5.456884	0.517458
7188.670409	0.371016	132.421875	320.605469
7188.672411	0.498668	132.421875	320.605469
7188.674408	0.497500	5.472500	0.515883
7189.726464	0.410276	450.976562	-66.992187
7189.728466	0.497304	450.976562	-66.992187
7189.730467	0.495479	5.450264	0.530666
7190.748504	0.465074	132.812500	318.066406
7190.750505	0.497347	132.812500	318.066406
7190.752506	0.495928	5.455209	0.525289
7191.801044	1.490930	450.585937	-71.386719
7191.803045	0.496851	450.585937	-71.386719
7191.805045	0.497062	5.467679	0.527527
7192.823083	0.415319	130.371094	325.097656
7192.825084	0.497465	130.371094	325.097656
7192.827084	0.495642	5.452064	0.539227
7193.879144	0.318563	447.656250	-73.925781
7193.881146	0.494993	447.656250	-73.925781
7193.883145	0.496505	5.461555	0.515754
7194.903181	0.497802	136.718750	305.468750
7194.905184	0.496127	5.457398	0.530498
7195.956093	0.360804	439.941406	-73.535156
7195.958095	0.497537	439.941406	-73.535156
7195.960094	0.496528	5.461812	0.513254
7196.982125	0.497742	124.902344	336.230469
7196.984127	0.496362	5.459978	0.546329
7198.030160	0.272533	433.789062	-75.488281
7198.032162	0.487987	433.789062	-75.488281
7198.034161	0.496631	433.789062	-75.488281
7198.036162	0.495151	5.446657	0.513225
7199.058215	0.488771	129.296875	323.730469
7199.060216	0.496788	129.296875	323.730469
7199.062216	0.495428	5.449706	0.549408
7200.106258	0.413109	423.632812	-73.437500
7200.108260	0.498012	423.632812	-73.437500
7200.110261	0.496326	5.459587	0.500038
7201.136291	0.920352	128.027344	326.464844
7201.138293	0.497691	128.027344	326.464844
7201.142292	0.495238	5.447615	0.559321
7202.180330	0.486866	427.539062	-79.492187
7202.182335	0.496971	427.539062	-79.492187
7202.184332	0.495580	5.451381	0.518628
7203.218932	0.497741	135.449219	307.031250
7203.222930	0.495038	5.445416	0.542509
7204.253498	0.417752	426.269531	-75.097656
7204.257497	0.495767	426.269531	-75.097656
7204.259498	0.494671	5.441384	0.515333
7205.297565	0.497314	126.953125	331.347656
7205.299567	0.495809	5.453897	0.521740
7206.329603	0.411637	431.347656	-71.777344
7206.331606	0.497477	431.347656	-71.777344
7206.333606	0.495758	5.453339	0.532297
7207.371656	0.283881	134.179687	315.429687
7207.373657	0.490188	134.179687	315.429687
7207.375655	0.496461	134.179687	315.429687
7207.377657	0.495083	5.445913	0.535160
7208.405679	0.496689	440.234375	-66.503906
7208.407679	0.496897	5.465871	0.546573
7209.451728	0.486056	137.402344	312.011719
7209.453728	0.497063	137.402344	312.011719
7209.455727	0.495700	5.452702	0.507191
7210.482315	0.483144	452.636719	-62.792969
7210.484319	0.496751	452.636719	-62.792969
7210.486319	0.495386	5.449245	0.568552
7211.524383	0.348147	135.351562	320.214844
7211.526383	0.497019	135.351562	320.214844
7211.528383	0.496509	5.461599	0.513213
7212.564448	0.434379	463.769531	-61.230469
7212.566451	0.497452	463.769531	-61.230469
7212.568452	0.495696	5.452657	0.550215
7213.596524	0.277854	129.394531	336.914062
7213.598525	0.489544	129.394531	336.914062
7213.600524	0.497205	129.394531	336.914062
7213.602525	0.495859	5.454447	0.504683
7214.644605	0.424485	467.968750	-61.425781
7214.646605	0.497485	467.968750	-61.425781
7214.648607	0.495740	5.453145	0.541308
7215.672653	0.463640	138.183594	312.207031
7215.674653	0.497434	138.183594	312.207031
7215.676654	0.495948	5.455431	0.519557
7216.723597	0.495588	460.449219	-62.109375
7216.725598	0.495983	5.455812	0.544204
7217.747559	0.495795	134.863281	316.601562
7217.749561	0.496613	5.462742	0.529699
7218.804113	0.497855	458.496094	-66.015625
7218.806115	0.496401	5.460412	0.512842
7219.824631	0.313597	125.585937	337.207031
7219.826633	0.496708	5.463788	0.542536
7220.880706	0.497733	457.226562	-69.531250
7220.882705	0.495918	5.455103	0.517996
7221.901276	0.493395	137.207031	304.492187
7221.903276	0.496495	137.207031	304.492187
7221.905278	0.495167	5.446835	0.546597
7222.954223	0.337750	444.628906	-65.039062
7222.958223	0.497041	444.628906	-65.039062
7222.960225	0.495887	5.454758	0.524376
7223.980305	0.497481	123.046875	341.699219
7223.982308	0.496379	5.460172	0.997083
7225.032350	0.483861	449.902344	-67.675781
7225.034352	0.497912	449.902344	-67.675781
7225.036352	0.496664	5.463301	0.520066
7226.056436	0.497908	135.058594	310.253906
7226.060436	0.495097	5.446073	0.533375
7227.109028	0.451577	448.828125	-63.867187
7227.111033	0.497253	448.828125	-63.867187
7227.113038	0.495641	5.452054	0.532660
7228.131046	0.485820	132.812500	317.968750
7228.133048	0.495932	132.812500	317.968750
7228.135047	0.494557	5.440125	0.547876
7229.185658	0.448661	463.281250	-66.992187
7229.187659	0.497207	463.281250	-66.992187
7229.189659	0.495582	5.451407	0.519220
7230.205668	0.338171	125.390625	340.917969
7230.209667	0.496603	125.390625	340.917969
7230.211669	0.495351	5.448864	0.532234
7231.261711	0.439485	464.648437	-61.523437
7231.263715	0.497125	464.648437	-61.523437
7231.265714	0.495512	5.450627	0.531798
7232.287743	0.498082	132.324219	326.660156
7232.289745	0.496634	5.462973	0.517615
7233.336293	0.375526	469.628906	-58.886719
7233.338294	0.381525	469.628906	-58.886719
7233.340293	0.495956	5.455520	0.553099
7234.364334	0.367968	126.855469	346.386719
7234.368334	0.495949	126.855469	346.386719
7234.370335	0.494883	5.443715	0.512017
7235.410388	0.374105	475.292969	-60.644531
7235.412392	0.497563	475.292969	-60.644531
7235.414391	0.496217	5.458391	0.554555
7236.442443	0.272471	133.203125	329.296875
7236.444443	0.487747	133.203125	329.296875
7236.446443	0.496312	133.203125	329.296875
7236.448442	0.494973	5.444699	0.517693
7237.488454	0.497602	461.816406	-57.128906
7237.490457	0.496419	5.460607	0.760908
7238.524475	0.495033	140.917969	304.589844
7238.528473	0.495032	5.445354	0.515112
7239.559431	0.411623	461.035156	-64.257812
7239.561433	0.498147	461.035156	-64.257812
7239.563433	0.496424	5.460669	0.567847
7240.603991	0.497244	133.300781	320.117187
7240.605992	0.496175	5.457930	0.507829
7241.636034	0.404418	442.773437	-63.964844
7241.638037	0.498313	442.773437	-63.964844
7241.640036	0.496725	5.463974	0.553720
7242.680093	0.489220	138.867187	298.730469
7242.682094	0.497238	138.867187	298.730469
7242.684094	0.495876	5.454633	0.533135
7243.716095	0.496158	442.187500	-70.214844
7243.718100	0.494825	5.443077	0.539489
7244.754164	0.458971	130.078125	319.628906
7244.758165	0.495316	130.078125	319.628906
7244.760165	0.494329	5.437618	0.536733
7245.792275	0.495018	441.894531	-73.535156
7245.794275	0.496888	5.465774	0.528800
7246.828823	0.263312	133.105469	309.765625
7246.830826	0.485778	133.105469	309.765625
7246.832826	0.496507	133.105469	309.765625
7246.834825	0.495127	5.446400	0.550732
7247.870841	0.348336	441.992187	-74.511719
7247.872844	0.496283	441.992187	-74.511719
7247.874844	0.494841	5.443254	0.519058
7248.907423	0.497491	136.523437	299.511719
7248.909424	0.495957	5.455528	0.543715
7249.952407	0.496408	444.628906	-74.609375
7249.954407	0.495383	5.449210	0.510004
7250.979338	0.378651	125.097656	331.933594
7250.981338	0.384012	125.097656	331.933594
7250.983338	0.496788	5.464665	0.553206
7252.029384	0.497042	447.167969	-73.535156
7252.031386	0.495301	5.448306	0.504978
7253.055378	0.363329	129.003906	321.484375
7253.057379	0.497356	129.003906	321.484375
7253.061377	0.495072	5.445789	0.558206
7254.103433	0.282865	439.550781	-67.382812
7254.105435	0.490229	439.550781	-67.382812
7254.107434	0.496661	439.550781	-67.382812
7254.109433	0.495281	5.448093	0.528038
7255.131492	0.275470	125.683594	331.054687
7255.133491	0.488294	125.683594	331.054687
7255.135492	0.496173	125.683594	331.054687
7255.137492	0.494833	5.443166	0.555391
7256.181547	0.348004	450.000000	-70.507812
7256.183548	0.496783	450.000000	-70.507812
7256.185547	0.496241	5.458648	0.515651
7257.210098	0.486661	126.757812	326.464844
7257.212100	0.496727	126.757812	326.464844
7257.214099	0.495272	5.447995	0.691178
7258.258146	0.256798	448.828125	-68.652344
7258.260148	0.484057	448.828125	-68.652344
7258.262151	0.496654	448.828125	-68.652344
7258.264150	0.495217	5.447384	0.518779
7259.288223	0.496376	134.082031	307.714844
7259.290224	0.494977	5.444752	0.557303
7260.334790	0.333697	448.339844	-68.164062
7260.336791	0.495905	448.339844	-68.164062
7260.338790	0.496171	5.457877	0.517687
7261.362903	0.485914	135.644531	303.417969
7261.364904	0.496762	135.644531	303.417969
7261.366904	0.495317	5.448492	0.553962
7262.411858	0.316649	445.800781	-66.406250
7262.413860	0.495354	445.800781	-66.406250
7262.415861	0.497092	5.468007	0.522050
7263.439893	0.440311	128.320312	322.460937
7263.441894	0.497334	128.320312	322.460937
7263.443895	0.495595	5.451550	0.546215
7264.489950	0.493900	453.906250	-71.093750
7264.491951	0.496705	5.463753	0.519373
7265.515963	0.292140	127.539062	323.437500
7265.517965	0.491966	127.539062	323.437500
7265.519966	0.496818	127.539062	323.437500
7265.521969	0.495478	5.450255	0.556623
7266.565978	0.465967	451.171875	-70.507812
7266.567978	0.497015	451.171875	-70.507812
7266.569977	0.496957	5.466527	0.503666
7267.594912	0.496038	126.367187	326.464844
7267.596916	0.496248	5.458728	0.554139
7268.646984	0.500722	447.949219	-69.335937
7268.648985	0.499926	5.499184	0.611251
7269.673534	0.498279	136.425781	300.000000
7269.675536	0.496691	5.463602	0.548578
7270.719547	0.497741	450.585937	-72.265625
7270.721548	0.496113	5.457239	0.508155
7271.748490	0.284179	127.734375	322.265625
7271.750493	0.490401	127.734375	322.265625
7271.752492	0.496615	127.734375	322.265625
7271.754493	0.495224	5.447464	0.559061
7272.792555	0.474708	443.066406	-68.261719
7272.794554	0.497144	443.066406	-68.261719
7272.798557	0.494800	5.442802	0.518424
7273.828605	0.487610	135.058594	302.343750
7273.830605	0.496572	135.058594	302.343750
7273.832606	0.495113	5.446240	0.558845
7274.869201	0.493228	447.558594	-69.726562
7274.871203	0.496710	447.558594	-69.726562
7274.873202	0.495308	5.448386	0.525178
7275.907750	0.496402	134.472656	306.250000
7275.909752	0.496669	5.463363	0.909105
7276.942726	0.282696	451.074219	-69.238281
7276.946727	0.496221	451.074219	-69.238281
7276.948728	0.494801	451.074219	-69.238281
7276.950728	0.493990	5.433887	0.531151
7277.985305	0.477327	137.890625	298.144531
7277.987306	0.497190	137.890625	298.144531
7277.989307	0.495744	5.453180	0.538576
7279.020280	0.457628	457.128906	-66.699219
7279.022280	0.497587	457.128906	-66.699219
7279.028279	0.494397	5.438371	0.544910
7280.062864	0.426327	132.910156	316.015625
7280.064866	0.497444	132.910156	316.015625
7280.066865	0.495748	5.453224	0.521932
7281.096859	0.497391	465.429687	-63.281250
7281.100857	0.494500	5.439506	0.552840
7282.139473	0.464738	135.839844	314.257812
7282.141476	0.497155	135.839844	314.257812
7282.143475	0.495610	5.451709	0.506553
7283.174031	0.482165	469.433594	-57.031250
7283.176031	0.496757	469.433594	-57.031250
7283.178032	0.495259	5.447854	0.567855
7284.214090	0.463685	129.296875	337.304687
7284.216091	0.496816	129.296875	337.304687
7284.220088	0.494260	5.436864	0.506064
7285.252139	0.442360	478.417969	-54.980469
7285.254141	0.497912	478.417969	-54.980469
7285.256140	0.496337	5.459712	0.577660
7286.288189	0.351315	130.175781	337.695312
7286.290190	0.497154	130.175781	337.695312
7286.292190	0.496554	5.462095	0.509646
7287.332196	0.356357	479.296875	-53.417969
7287.334198	0.498034	479.296875	-53.417969
7287.336200	0.497271	5.469983	0.567059
7288.364250	0.497300	130.761719	332.812500
7288.366252	0.497072	5.467794	0.511012
7289.410779	0.406682	483.398437	-56.250000
7289.412780	0.497794	483.398437	-56.250000
7289.414780	0.496125	5.457372	0.550364
7290.436822	0.406794	135.351562	318.066406
7290.438822	0.498519	135.351562	318.066406
7290.440825	0.496831	5.465144	0.524974
7291.488819	0.386735	478.515625	-55.859375
7291.490820	0.498343	478.515625	-55.859375
7291.492821	0.496789	5.464674	0.544046
7292.512853	0.316996	131.640625	324.609375
7292.514855	0.496609	131.640625	324.609375
7292.516855	0.498484	5.483329	0.532402
7293.569392	0.497548	481.250000	-59.570312
7293.571394	0.496057	5.456627	0.531342
7294.589950	0.379595	131.835937	323.925781
7294.591952	0.498103	131.835937	323.925781
7294.593951	0.496664	5.463301	0.535013
7295.644028	0.424894	476.562500	-58.007812
7295.646029	0.497457	476.562500	-58.007812
7295.648029	0.495675	5.452426	0.530846
7296.668029	0.497708	130.761719	327.343750
7296.670031	0.496542	130.761719	327.343750
7296.672033	0.495342	5.448758	0.546393
7297.722084	0.497626	473.632812	-56.933594
7297.724085	0.495928	5.455209	0.526003
7298.744118	0.351367	131.250000	325.000000
7298.746119	0.496880	131.250000	325.000000
7298.748118	0.496225	5.458471	0.535846
7299.798194	0.484124	475.390625	-55.957031
7299.800196	0.496968	475.390625	-55.957031
7299.802194	0.495556	5.451115	0.641602
7300.820255	0.348627	135.351562	314.746094
7300.822257	0.497020	135.351562	314.746094
7300.824258	0.496517	5.461688	0.533284
7301.872280	0.328119	477.148437	-54.199219
7301.874282	0.496414	477.148437	-54.199219
7301.876281	0.497138	5.468521	0.536773
7302.898330	0.326972	135.546875	316.796875
7302.900332	0.495485	135.546875	316.796875
7302.902332	0.496203	5.458231	0.546241
7303.948368	0.389291	487.597656	-56.054687
7303.950371	0.498274	487.597656	-56.054687
7303.952370	0.496743	5.464169	0.563497
7304.976918	0.382505	127.929687	340.722656
7304.978920	0.498064	127.929687	340.722656
7304.980920	0.496658	5.463239	0.519727
7306.026964	0.497357	489.843750	-55.371094
7306.028968	0.497282	5.470098	0.558795
7307.057517	0.280552	132.519531	331.347656
7307.059517	0.489322	132.519531	331.347656
7307.061518	0.496312	132.519531	331.347656
7307.063517	0.494869	5.443564	0.506884
7308.102055	0.497766	494.238281	-55.371094
7308.104057	0.496117	5.457292	0.544405
7309.136664	0.414165	132.714844	330.761719
7309.138667	0.497006	132.714844	330.761719
7309.140667	0.495232	5.447552	0.502084
7310.173202	0.380750	478.710937	-54.687500
7310.175204	0.497523	478.710937	-54.687500
7310.177204	0.496019	5.456211	0.558922
7311.217228	0.497077	132.617187	322.460937
7311.221227	0.494271	5.436979	0.503529
7312.247750	0.370609	471.972656	-57.812500
7312.249752	0.497602	471.972656	-57.812500
7312.251750	0.496318	5.459499	0.554506
7313.293734	0.428293	132.421875	317.578125
7313.295736	0.497446	132.421875	317.578125
7313.297736	0.495685	5.452533	0.518681
7314.323759	0.348468	456.542969	-58.105469
7314.325762	0.497119	456.542969	-58.105469
7314.329760	0.495543	5.450973	0.561156
7315.374221	0.496305	135.058594	304.589844
7315.376223	0.495130	5.446427	0.529415
7316.402768	0.498144	462.304687	-64.257812
7316.404770	0.496606	5.462663	0.536392
7317.449304	0.497363	125.488281	333.105469
7317.451306	0.496029	5.456317	0.624013
7318.479374	0.439498	459.179687	-64.550781
7318.481375	0.497834	459.179687	-64.550781
7318.483375	0.496119	5.457310	0.527022
7319.523432	0.495504	133.398437	307.226562
7319.525432	0.496261	5.458869	0.884530
7320.556404	0.358516	462.695312	-68.652344
7320.558406	0.497311	462.695312	-68.652344
7320.560406	0.496458	5.461041	0.542572
7321.602447	0.497299	122.460937	337.109375
7321.604450	0.496465	5.461112	0.541270
7322.634470	0.338470	457.031250	-64.648437
7322.636471	0.496482	457.031250	-64.648437
7322.638470	0.496465	5.461112	0.532543
7323.672448	0.281601	128.613281	317.578125
7323.674448	0.490056	128.613281	317.578125
7323.676450	0.496763	128.613281	317.578125
7323.678452	0.495420	5.449617	0.550774
7324.714562	0.443892	461.523437	-67.675781
7324.718561	0.495251	461.523437	-67.675781
7324.720562	0.494256	5.436820	0.510189
7325.751480	0.497361	125.488281	327.246094
7325.753484	0.495687	5.452559	0.547203
7326.791505	1.843486	450.781250	-62.109375
7326.793505	0.497358	450.781250	-62.109375
7326.795507	0.496744	5.464187	0.530629
7327.827596	0.497431	128.906250	318.261719
7327.829598	0.495705	5.452754	0.549948
7328.869625	0.497336	450.976562	-61.523437
7328.871626	0.496980	5.466784	0.941666
7329.901701	0.322829	125.195312	328.320312
7329.903703	0.495988	125.195312	328.320312
7329.905704	0.497217	5.469389	0.558197
7330.947726	0.497443	459.570312	-64.843750
7330.949728	0.495824	5.454066	0.515381
7331.980261	0.435468	131.738281	311.035156
7331.982262	0.497498	131.738281	311.035156
7331.984263	0.495751	5.453259	0.562653
7333.020805	0.322612	459.277344	-63.964844
7333.022808	0.495312	459.277344	-63.964844
7333.024807	0.496466	5.461121	0.522372
7334.056838	0.364158	125.390625	327.050781
7334.058840	0.497550	125.390625	327.050781
7334.060841	0.496469	5.461156	0.554823
7335.096891	0.387363	455.468750	-62.011719
7335.098893	0.497777	455.468750	-62.011719
7335.102890	0.495049	5.445540	0.524311
7336.134906	0.411094	126.464844	324.121094
7336.136909	0.497087	126.464844	324.121094
7336.138908	0.495301	5.448306	0.547592
7337.174950	0.496971	464.257812	-65.332031
7337.176949	0.495602	5.451620	0.528298
7338.213495	0.481133	133.984375	303.417969
7338.215497	0.496346	133.984375	303.417969
7338.217497	0.494910	5.444007	0.548539
7339.252091	0.497570	456.640625	-60.449219
7339.254092	0.496164	456.640625	-60.449219
7339.256089	0.495241	5.447650	0.517150
7340.290180	0.395364	125.781250	328.906250
7340.292182	0.497382	125.781250	328.906250
7340.294180	0.495694	5.452631	0.534313
7341.326239	0.470017	462.109375	-58.398437
7341.328241	0.498105	462.109375	-58.398437
7341.332238	0.495817	5.453986	0.539926
7342.372272	0.497311	130.273437	319.921875
7342.376272	0.494995	5.444947	0.516236
7343.400828	0.423932	468.652344	-56.152344
7343.402829	0.497738	468.652344	-56.152344
7343.406827	0.495025	5.445275	0.547897
7344.446857	0.468679	129.003906	329.785156
7344.448858	0.497686	129.003906	329.785156
7344.450859	0.496288	5.459171	0.519395
7345.480909	0.455529	472.265625	-52.343750
7345.482911	0.497428	472.265625	-52.343750
7345.486909	0.494893	5.443821	0.541007
7346.520985	0.427488	124.707031	346.679687
7346.522984	0.497501	124.707031	346.679687
7346.524985	0.495798	5.453783	0.504341
7347.561049	0.497184	484.863281	-51.660156
7347.563049	0.495584	484.863281	-51.660156
7347.567050	0.493967	5.433639	0.542699
7348.595091	0.284574	123.144531	353.613281
7348.597094	0.490332	123.144531	353.613281
7348.599095	0.496379	123.144531	353.613281
7348.601095	0.495090	5.445992	0.513402
7349.637101	0.376173	495.410156	-52.441406
7349.639103	0.497674	495.410156	-52.441406
7349.641103	0.496417	5.460589	0.552602
7350.671125	0.345162	123.632812	354.785156
7350.673128	0.352250	123.632812	354.785156
7350.675127	0.496786	5.464648	0.513330
7351.715212	0.363741	489.746094	-50.000000
7351.717214	0.497357	489.746094	-50.000000
7351.719214	0.496242	5.458657	0.555509
7352.745256	0.416338	136.230469	315.429687
7352.747259	0.497327	136.230469	315.429687
7352.749257	0.495551	5.451062	0.514240
7353.795278	0.456026	494.921875	-52.539062
7353.797277	0.497550	494.921875	-52.539062
7353.799278	0.496019	5.456211	0.539817
7354.823833	0.496794	120.312500	357.910156
7354.825835	0.495164	5.446799	0.534406
7355.871897	0.399024	485.156250	-50.878906
7355.873900	0.497974	485.156250	-50.878906
7355.875900	0.496357	5.459924	0.543729
7356.899879	0.498120	129.296875	327.539062
7356.901883	0.496561	5.462175	0.519004
7357.954463	0.496708	493.554687	-55.078125
7357.956465	0.495716	5.452878	0.536222
7358.973052	0.321402	125.976562	336.523437
7358.975054	0.495326	125.976562	336.523437
7358.977053	0.496542	5.461962	0.535446
7360.027088	0.433238	490.234375	-53.417969
7360.029090	0.497391	490.234375	-53.417969
7360.031089	0.495675	5.452426	0.536935
7361.049129	0.308635	132.226562	319.042969
7361.051129	0.493979	132.226562	319.042969
7361.053131	0.496428	5.460713	0.554273
7362.103139	0.356167	495.312500	-55.273437
7362.105141	0.497174	495.312500	-55.273437
7362.107142	0.496441	5.460855	0.560499
7363.133141	0.496125	123.242187	345.312500
7363.135142	0.495169	5.446861	0.515008
7364.183173	0.497274	485.644531	-49.707031
7364.185175	0.495700	5.452702	0.531611
7365.205203	0.485368	134.277344	319.042969
7365.207205	0.496428	134.277344	319.042969
7365.209205	0.494987	5.444858	0.528436
7366.256136	0.437755	495.312500	-49.707031
7366.260136	0.496009	495.312500	-49.707031
7366.262137	0.494956	5.444521	0.555214
7367.284186	0.493884	120.410156	361.621094
7367.286187	0.497144	5.468583	0.528376
7368.332192	0.470229	500.585937	-51.757812
7368.336192	0.495213	500.585937	-51.757812
7368.338196	0.494294	5.437236	0.545454
7369.361174	0.263687	126.855469	345.898437
7369.363176	0.485840	126.855469	345.898437
7369.367175	0.495267	126.855469	345.898437
7369.369176	0.494442	5.438858	0.516414
7370.407203	0.461977	496.289062	-49.414062
7370.409205	0.497100	496.289062	-49.414062
7370.411205	0.495529	5.450814	0.548860
7371.441192	0.440819	123.632812	354.980469
7371.443193	0.497693	123.632812	354.980469
7371.445194	0.496129	5.457416	0.523074
7372.483235	0.497469	487.500000	-48.339844
7372.485235	0.495688	5.452568	0.553996
7373.523272	0.497050	129.492187	333.886719
7373.525274	0.495500	129.492187	333.886719
7373.527273	0.494529	5.439824	0.505014
7374.557309	0.449009	477.539062	-49.902344
7374.559312	0.496879	477.539062	-49.902344
7374.561312	0.495305	5.448350	0.544304
7375.597770	0.253855	129.199219	328.808594
7375.599773	0.483394	129.199219	328.808594
7375.601773	0.496859	129.199219	328.808594
7375.603775	0.495458	5.450034	0.520683
7376.631809	0.301424	476.367187	-53.515625
7376.633809	0.493750	476.367187	-53.515625
7376.635809	0.497078	476.367187	-53.515625
7376.637808	0.495795	5.453747	0.555030
7377.675867	0.445384	133.007812	312.695312
7377.677870	0.497408	133.007812	312.695312
7377.683867	0.494020	5.434224	0.517049
7378.710434	0.492581	473.437500	-56.738281
7378.712440	0.497357	473.437500	-56.738281
7378.714442	0.496050	5.456548	0.548708
7379.752474	0.382715	133.984375	305.761719
7379.754476	0.498143	133.984375	305.761719
7379.756478	0.496711	5.463823	0.543220
7380.787471	0.461045	468.261719	-57.812500
7380.789475	0.497371	468.261719	-57.812500
7380.791474	0.495735	5.453082	0.526122
7381.829520	0.492607	120.019531	342.480469
7381.831521	0.497672	120.019531	342.480469
7381.835521	0.495613	5.451744	0.765454
7382.863552	0.333412	474.804687	-62.304687
7382.865555	0.495637	474.804687	-62.304687
7382.867555	0.495867	5.454536	0.530363
7383.903568	1.942374	126.464844	321.875000
7383.905569	0.488040	126.464844	321.875000
7383.907569	0.496337	126.464844	321.875000
7383.909570	0.494874	5.443618	0.547415
7384.941633	0.387552	461.523437	-57.519531
7384.943635	0.498101	461.523437	-57.519531
7384.945637	0.496715	5.463868	0.524912
7385.981625	0.485026	134.960937	298.242187
7385.983626	0.497069	134.960937	298.242187
7385.985626	0.495640	5.452036	0.549165
7387.020579	0.488286	463.183594	-58.105469
7387.022579	0.496445	463.183594	-58.105469
7387.024580	0.495056	5.445611	0.693335
7388.058615	0.475389	127.636719	316.796875
7388.060617	0.496793	127.636719	316.796875
7388.064615	0.494414	5.438557	0.556967
7389.094697	0.348280	462.500000	-57.519531
7389.096699	0.497606	462.500000	-57.519531
7389.098703	0.497306	5.470364	0.544422
7390.134787	0.438601	125.781250	324.707031
7390.138790	0.495795	125.781250	324.707031
7390.140791	0.494837	5.443210	0.539710
7391.174830	0.498033	461.230469	-57.128906
7391.176829	0.496374	5.460110	0.520476
7392.210821	0.362840	126.464844	320.800781
7392.212824	0.497307	126.464844	320.800781
7392.214825	0.496304	5.459348	0.549873
7393.248908	0.324671	469.628906	-59.375000
7393.250910	0.495415	469.628906	-59.375000
7393.252908	0.496331	5.459641	0.522143
7394.290951	0.496791	132.519531	303.613281
7394.292951	0.496171	5.457886	0.539378
7395.327516	0.497442	476.367187	-61.718750
7395.329518	0.495735	5.453082	0.522565
7396.366487	0.451219	131.347656	307.910156
7396.368490	0.497478	131.347656	307.910156
7396.370488	0.495830	5.454128	0.546777
7397.405042	0.497655	476.660156	-60.351562
7397.407044	0.496219	5.458409	0.522651
7398.443983	0.433802	121.875000	335.546875
7398.447983	0.495548	121.875000	335.546875
7398.449984	0.494578	5.440356	0.541790
7399.480028	0.485506	466.699219	-54.687500
7399.482030	0.496185	466.699219	-54.687500
7399.484029	0.494713	5.441845	0.537988
7400.522048	0.488875	125.195312	329.394531
7400.524050	0.496446	125.195312	329.394531
7400.526050	0.494961	5.444574	0.530630
7401.556074	0.480177	484.277344	-57.226562
7401.558076	0.496453	484.277344	-57.226562
7401.560075	0.494976	5.444734	0.602222
7402.600088	0.497029	128.710937	325.585937
7402.602091	0.495363	128.710937	325.585937
7402.608088	0.493356	5.426921	0.514707
7403.634119	0.497638	485.546875	-52.441406
7403.636122	0.496266	5.458923	0.549439
7404.674620	0.443247	131.640625	321.777344
7404.676624	0.497832	131.640625	321.777344
7404.678623	0.496246	5.458701	0.503280
7405.709569	0.341578	495.019531	-51.367187
7405.711569	0.496326	495.019531	-51.367187
7405.713572	0.496072	5.456787	0.572751
7406.750523	0.488867	120.605469	358.300781
7406.752525	0.496437	120.605469	358.300781
7406.754525	0.495097	5.446064	0.516185
7407.788576	0.305787	494.628906	-47.363281
7407.790578	0.493241	494.628906	-47.363281
7407.792578	0.495964	5.455608	0.551604
7408.824659	0.419537	125.292969	347.851562
7408.826662	0.497140	125.292969	347.851562
7408.828661	0.495272	5.447987	0.505686
7409.868759	0.493304	501.269531	-48.046875
7409.870760	0.496440	5.460837	0.556669
7410.899319	0.278351	126.855469	342.675781
7410.901320	0.489388	126.855469	342.675781
7410.905318	0.495351	126.855469	342.675781
7410.907321	0.494447	5.438920	0.512285
7411.947354	0.490187	502.734375	-48.828125
7411.949356	0.496472	502.734375	-48.828125
7411.951356	0.495119	5.446311	0.552939
7412.975907	0.488294	132.714844	323.730469
7412.977909	0.496374	132.714844	323.730469
7412.979908	0.495040	5.445443	0.519896
7414.024828	0.448177	495.117187	-46.679687
7414.026828	0.497305	495.117187	-46.679687
7414.028829	0.495657	5.452223	0.540231
7415.050848	0.445438	119.140625	359.570312
7415.052849	0.497332	119.140625	359.570312
7415.054849	0.495702	5.452719	0.536374
7416.100892	0.306287	492.578125	-46.875000
7416.102891	0.493903	492.578125	-46.875000
7416.104891	0.496788	5.464665	0.547056
7417.126909	0.297242	127.343750	332.812500
7417.128912	0.493555	127.343750	332.812500
7417.130912	0.497054	5.467590	0.522552
7418.179465	0.424955	501.074219	-50.097656
7418.181467	0.497013	501.074219	-50.097656
7418.183472	0.495207	5.447278	0.534862
7419.206379	0.497228	117.773437	361.035156
7419.208379	0.495699	5.452683	0.514073
7420.256342	0.389808	496.972656	-48.339844
7420.258345	0.497464	496.972656	-48.339844
7420.260345	0.495840	5.454244	0.534932
7421.282361	0.495122	128.320312	332.128906
7421.284362	0.495637	5.452010	0.842786
7422.333315	0.468048	497.070312	-47.460937
7422.335316	0.497262	497.070312	-47.460937
7422.337317	0.495757	5.453321	0.534030
7423.359342	0.490188	119.628906	358.593750
7423.361342	0.496159	119.628906	358.593750
7423.363342	0.494797	5.442767	0.726355
7424.411360	0.497511	492.675781	-44.824219
7424.413362	0.495694	5.452640	0.536743
7425.439368	0.497499	124.316406	347.753906
7425.441370	0.496130	5.457425	0.619430
7426.485391	0.482162	506.152344	-47.949219
7426.487391	0.496214	506.152344	-47.949219
7426.489393	0.494761	5.442368	0.552159
7427.515992	0.479436	123.730469	352.050781
7427.517993	0.496421	123.730469	352.050781
7427.519993	0.494919	5.444105	0.564940
7428.560084	0.455618	494.824219	-44.238281
7428.562085	0.496822	494.824219	-44.238281
7428.564087	0.495206	5.447268	0.559781
7429.596172	0.497064	126.464844	345.019531
7429.598175	0.495378	5.449157	0.503035
7430.636256	0.496870	499.121094	-47.070312
7430.638258	0.496575	5.462326	0.914164
7431.672820	0.436833	128.125000	335.156250
7431.674821	0.497348	128.125000	335.156250
7431.676822	0.495575	5.451328	0.511239
7432.710863	0.484892	490.332031	-47.070312
7432.712866	0.496669	490.332031	-47.070312
7432.714866	0.495218	5.447402	0.668806
7433.750911	0.361578	130.371094	325.292969
7433.752911	0.497357	130.371094	325.292969
7433.754912	0.496349	5.459844	0.513146
7434.787467	0.497322	481.933594	-47.753906
7434.789468	0.495545	5.451000	0.563148
7435.829501	0.458240	131.738281	316.503906
7435.831504	0.496488	131.738281	316.503906
7435.833503	0.494818	5.442997	0.522642
7436.866086	0.496003	486.523437	-52.734375
7436.868088	0.494693	486.523437	-52.734375
7436.872087	0.493410	5.427515	0.544512
7437.904122	0.261334	122.949219	336.035156
7437.906120	0.272012	122.949219	336.035156
7437.908120	0.496655	122.949219	336.035156
7437.910122	0.495339	5.448731	0.526490
7438.940146	0.436211	479.785156	-53.808594
7438.942146	0.497100	479.785156	-53.808594
7438.944145	0.495363	5.448997	0.530561
7439.982173	0.446338	131.054687	309.277344
7439.986175	0.495429	131.054687	309.277344
7439.988175	0.494442	5.438858	0.520079
7441.017093	0.412096	473.437500	-53.320312
7441.021094	0.496041	473.437500	-53.320312
7441.023096	0.494966	5.444628	0.527408
7442.059179	0.470600	120.214844	337.695312
7442.061180	0.496818	120.214844	337.695312
7442.063181	0.495317	5.448492	0.537084
7443.095242	0.484530	482.128906	-57.812500
7443.097244	0.496376	482.128906	-57.812500
7443.099244	0.494925	5.444176	0.641971
7444.135260	0.421272	132.031250	301.562500
7444.137261	0.496880	132.031250	301.562500
7444.139260	0.495027	5.445302	0.522400
7445.170220	0.228289	470.507812	-54.101562
7445.172220	0.475860	470.507812	-54.101562
7445.174220	0.496906	470.507812	-54.101562
7445.176222	0.495463	5.450096	0.544506
7446.212255	0.399566	125.976562	317.773437
7446.214256	0.498078	125.976562	317.773437
7446.216258	0.496426	5.460686	0.532413
7447.248296	0.429466	475.292969	-55.664062
7447.250297	0.497353	475.292969	-55.664062
7447.252298	0.495520	5.450725	0.520390
7448.290355	0.497357	131.445312	302.148437
7448.292355	0.495680	5.452480	0.535621
7449.324909	0.279748	482.226562	-55.957031
7449.326912	0.489034	482.226562	-55.957031
7449.330909	0.494579	482.226562	-55.957031
7449.332914	0.493802	5.431822	0.531856
7450.364990	0.444605	123.437500	330.566406
7450.366989	0.448307	123.437500	330.566406
7450.368990	0.499797	5.497766	0.538929
7451.403051	0.463031	478.320312	-54.394531
7451.405053	0.497573	478.320312	-54.394531
7451.407053	0.496153	5.457682	0.522607
7452.445110	0.496761	125.390625	324.511719
7452.447112	0.495486	5.450344	0.543862
7453.479115	0.455963	485.742187	-56.152344
7453.481117	0.496897	485.742187	-56.152344
7453.483117	0.495247	5.447712	0.523856
7454.520060	0.411308	128.808594	316.210937
7454.522061	0.497651	128.808594	316.210937
7454.524063	0.495873	5.454598	0.525925
7455.554118	0.232826	477.148437	-51.074219
7455.556119	0.476914	477.148437	-51.074219
7455.558118	0.496294	477.148437	-51.074219
7455.560117	0.494837	5.443210	0.561775
7456.598173	0.483342	132.714844	309.863281
7456.602174	0.494971	132.714844	309.863281
7456.604175	0.494161	5.435774	0.623757
7457.631095	0.282659	490.234375	-52.343750
7457.633098	0.490050	490.234375	-52.343750
7457.635096	0.496565	490.234375	-52.343750
7457.637097	0.495160	5.446754	0.547645
7458.673627	0.297172	126.562500	331.250000
7458.675628	0.493306	126.562500	331.250000
7458.679627	0.496261	126.562500	331.250000
7458.683626	0.494786	5.442643	0.519010
7459.709656	0.455994	485.546875	-46.582031
7459.711660	0.497000	485.546875	-46.582031
7459.713658	0.495324	5.448563	0.557888
7460.749657	2.011763	127.441406	334.472656
7460.751659	0.488982	127.441406	334.472656
7460.753659	0.496934	127.441406	334.472656
7460.755660	0.495660	5.452258	0.512599
7461.787756	0.481194	503.710937	-48.339844
7461.789756	0.496399	503.710937	-48.339844
7461.791756	0.494979	5.444769	0.559090
7462.826746	0.459224	129.003906	335.839844
7462.828747	0.496898	129.003906	335.839844
7462.830747	0.495324	5.448563	0.498941
7463.869285	0.496177	504.687500	-45.214844
7463.871288	0.494993	5.444920	0.547274
7464.901828	0.403375	128.222656	342.773437
7464.903831	0.497824	128.222656	342.773437
7464.905831	0.496127	5.457398	0.503938
7465.947872	0.496165	498.535156	-41.699219
7465.951874	0.494484	5.439319	0.546360
7466.977922	0.497691	133.593750	328.222656
7466.979925	0.496065	5.456716	0.508254
7468.023941	0.481880	509.570312	-44.140625
7468.025943	0.496419	509.570312	-44.140625
7468.027945	0.494983	5.444814	0.552347
7469.054437	0.497410	126.367187	345.214844
7469.056439	0.495699	5.452693	0.505073
7470.100993	0.437771	511.718750	-45.410156
7470.102998	0.497354	511.718750	-45.410156
7470.104998	0.495592	5.451514	0.540373
7471.127940	0.424916	116.992187	369.433594
7471.129944	0.497293	116.992187	369.433594
7471.131946	0.495532	5.450849	0.526914
7472.177952	0.346397	499.804687	-42.871094
7472.179954	0.496761	499.804687	-42.871094
7472.181955	0.496443	5.460872	0.541184
7473.204397	0.452372	119.628906	359.765625
7473.206398	0.496720	119.628906	359.765625
7473.208398	0.495011	5.445124	0.514058
7474.260470	0.496626	504.882812	-44.140625
7474.262473	0.495687	5.452559	0.532111
7475.280492	0.392188	121.875000	353.222656
7475.282493	0.498131	121.875000	353.222656
7475.284492	0.496671	5.463380	0.517607
7476.332525	0.375544	502.246094	-43.164062
7476.334526	0.497712	502.246094	-43.164062
7476.336527	0.496322	5.459543	0.539743
7477.358577	0.474891	118.066406	364.453125
7477.360577	0.496967	118.066406	364.453125
7477.362577	0.495503	5.450530	0.513524
7478.408606	0.364794	512.597656	-45.996094
7478.410608	0.498062	512.597656	-45.996094
7478.412609	0.498161	5.479767	0.559115
7479.436655	0.497459	117.773437	366.894531
7479.438656	0.496388	5.460270	0.516408
7480.484696	0.355102	509.375000	-44.433594
7480.486700	0.497404	509.375000	-44.433594
7480.488702	0.496637	5.463008	0.547012
7481.512744	0.348828	133.300781	326.074219
7481.514746	0.497440	133.300781	326.074219
7481.516744	0.497013	5.467138	0.508562
7482.560777	0.342427	501.171875	-40.625000
7482.562778	0.496955	501.171875	-40.625000
7482.564779	0.496784	5.464621	0.563421
7483.592803	0.481189	125.195312	350.976562
7483.594807	0.497181	125.195312	350.976562
7483.596805	0.495781	5.453588	0.576376
7484.636880	0.406109	513.085937	-44.628906
7484.638879	0.498066	513.085937	-44.628906
7484.640882	0.496450	5.460952	0.542092
7485.671851	0.494054	131.542969	332.812500
7485.673854	0.498469	131.542969	332.812500
7485.675854	0.497336	5.470701	0.748985
7486.713912	0.497185	507.128906	-43.066406
7486.715914	0.495516	507.128906	-43.066406
7486.717913	0.494407	5.438478	0.547668
7487.747953	0.281450	132.910156	327.539062
7487.749955	0.489963	132.910156	327.539062
7487.753952	0.495415	132.910156	327.539062
7487.755954	0.494662	5.441278	0.511202
7488.788479	0.494189	503.222656	-44.238281
7488.790482	0.496296	5.459260	0.554114
7489.826553	0.342575	127.929687	336.523437
7489.828561	0.497306	127.929687	336.523437
7489.830561	0.497191	5.469105	0.511059
7490.864619	0.494707	502.343750	-45.898437
7490.866621	0.497548	5.473022	0.818802
7491.904626	0.394982	124.804687	342.675781
7491.906626	0.497805	124.804687	342.675781
7491.908625	0.496165	5.457815	0.513261
7492.942666	0.496515	497.949219	-48.730469
7492.944669	0.495155	5.446710	0.547125
7493.981241	0.312954	124.804687	334.570312
7493.983241	0.494546	124.804687	334.570312
7493.985243	0.496656	5.463212	0.522546
7495.017270	0.463416	484.082031	-47.558594
7495.019270	0.497226	484.082031	-47.558594
7495.021271	0.495740	5.453135	0.528178
7496.061318	0.496781	129.003906	317.089844
7496.063323	0.495387	129.003906	317.089844
7496.065325	0.494457	5.439027	0.513063
7497.093880	0.410722	491.503906	-52.636719
7497.095882	0.497382	491.503906	-52.636719
7497.097881	0.495669	5.452356	0.524304
7498.136863	0.497189	128.515625	313.183594
7498.138867	0.495478	128.515625	313.183594
7498.140866	0.494423	5.438655	0.526151
7499.171426	0.391496	484.765625	-51.367187
7499.173428	0.497803	484.765625	-51.367187
7499.175428	0.496190	5.458089	0.521218
7500.208952	2.188525	130.566406	305.078125
7500.214183	0.497755	130.566406	305.078125
7500.216185	0.496204	5.458249	0.543472
7501.251173	0.497091	482.128906	-51.171875
7501.253175	0.495508	5.450583	0.517897
7502.287213	0.357973	123.828125	323.046875
7502.289215	0.498325	123.828125	323.046875
7502.291214	0.497609	5.473696	0.529992
7503.327277	0.494425	490.722656	-54.492187
7503.329281	0.496260	5.458860	0.827416
7504.363336	0.272585	123.925781	322.070312
7504.365336	0.487745	123.925781	322.070312
7504.367336	0.496482	123.925781	322.070312
7504.369335	0.495039	5.445434	0.539278
7505.403359	0.497819	475.488281	-49.609375
7505.405361	0.496397	5.460367	0.527955
7506.441361	0.324770	124.609375	321.093750
7506.443362	0.495464	124.609375	321.093750
7506.445362	0.496412	5.460527	0.529608
7507.479431	0.468591	478.027344	-49.023437
7507.481430	0.497710	478.027344	-49.023437
7507.483432	0.496279	5.459064	0.517466
7508.519472	0.385248	125.292969	321.386719
7508.521473	0.497917	125.292969	321.386719
7508.523473	0.496428	5.460713	0.518090
7509.555560	0.422021	487.597656	-49.511719
7509.557562	0.497361	487.597656	-49.511719
7509.561561	0.494524	5.439763	0.525993
7510.599661	0.497579	129.980469	315.136719
7510.601662	0.496211	5.458320	0.534888
7511.632181	0.416080	495.507812	-49.414062
7511.634182	0.497578	495.507812	-49.414062
7511.636184	0.495823	5.454048	0.551238
7512.674710	0.469007	122.363281	341.503906
7512.676711	0.497203	122.363281	341.503906
7512.678713	0.495762	5.453384	0.502632
7513.708776	0.338449	493.261719	-45.410156
7513.710777	0.496179	493.261719	-45.410156
7513.712776	0.496136	5.457496	0.538823
7514.752867	0.938128	128.027344	332.910156
7514.754870	0.495844	5.454288	0.503604
7515.787397	0.482421	501.367187	-43.847656
7515.789400	0.496755	501.367187	-43.847656
7515.791400	0.495292	5.448217	0.627591
7516.827434	0.462835	125.878906	342.968750
7516.829436	0.497271	125.878906	342.968750
7516.831438	0.495730	5.453029	0.497908
