time (s)	coil I (A)	last det (V)	int current (uC)
66546.038118	1.050895	-112.011719	427.343750
66546.040121	1.080879	-112.011719	427.343750
66546.042118	1.077635	11.853989	0.047981
66547.060753	0.807615	-224.414062	-66.503906
66547.062757	1.084187	-224.414062	-66.503906
66547.064759	1.080671	11.887382	0.047833
66548.108777	0.665598	-114.746094	423.437500
66548.110779	1.059099	-114.746094	423.437500
66548.112780	1.081209	-114.746094	423.437500
66548.114780	1.078026	11.858287	0.061865
66549.144840	0.606153	-228.320312	-68.359375
66549.146841	1.037023	-228.320312	-68.359375
66549.148841	1.081025	-228.320312	-68.359375
66549.150843	1.077668	11.854351	0.049868
66550.219454	0.960488	-112.500000	432.226562
66550.221454	1.083408	-112.500000	432.226562
66550.223455	1.079264	11.871900	0.049369
66551.246029	0.591825	-225.488281	-63.964844
66551.248031	1.030893	-225.488281	-63.964844
66551.250032	1.081138	-225.488281	-63.964844
66551.254029	1.075333	11.828669	0.041855
66552.296117	0.957301	-112.500000	429.882812
66552.298118	1.083658	-112.500000	429.882812
66552.300119	1.079460	11.874062	0.220918
66553.318141	1.082241	-226.953125	-67.089844
66553.320142	1.078335	-226.953125	-67.089844
66553.322143	1.075914	11.835049	0.046964
66554.384727	0.885521	-118.066406	421.191406
66554.386730	1.084720	-118.066406	421.191406
66554.388730	1.079962	11.879582	0.056736
66555.404757	0.916396	-228.320312	-64.257812
66555.406760	1.083786	-228.320312	-64.257812
66555.410756	1.076801	11.844807	0.046532
66556.478772	1.047123	-118.945312	419.042969
66556.480773	1.080574	-118.945312	419.042969
66556.482773	1.077313	11.850444	0.057423
66557.493379	0.837475	-225.292969	-60.546875
66557.495380	1.085389	-225.292969	-60.546875
66557.497381	1.080905	11.889952	0.046505
66558.561447	0.580143	-116.406250	424.902344
66558.563448	1.025477	-116.406250	424.902344
66558.565447	1.080902	-116.406250	424.902344
66558.567448	1.077387	11.851258	0.048514
66559.569432	0.679433	-229.980469	-58.300781
66559.571435	1.062431	-229.980469	-58.300781
66559.573435	1.080261	-229.980469	-58.300781
66559.577432	1.074914	11.824051	0.044355
66560.653502	1.084055	-116.992187	420.410156
66560.655505	1.079341	11.872750	0.058650
66561.660054	1.030642	-237.988281	-56.054687
66561.662055	1.081251	-237.988281	-56.054687
66561.664057	1.077871	11.856577	0.056364
66562.740659	1.078932	-102.929687	440.429687
66562.742662	1.076449	11.840934	0.091325
66563.751135	0.597701	-241.699219	-51.855469
66563.753137	1.033246	-241.699219	-51.855469
66563.755136	1.080827	-241.699219	-51.855469
66563.757138	1.077282	11.850098	0.049936
66564.821178	0.851519	-96.386719	439.160156
66564.823179	1.084564	-96.386719	439.160156
66564.825178	1.079848	11.878332	0.047173
66565.845226	0.861187	-244.921875	-50.976562
66565.847228	1.084137	-244.921875	-50.976562
66565.849226	1.079388	11.873264	0.053491
66566.891657	1.083735	-92.187500	441.308594
66566.893660	1.079117	11.870286	0.049620
66567.933707	0.742689	-248.632812	-51.953125
66567.935709	1.076341	-248.632812	-51.953125
66567.937714	1.079902	-248.632812	-51.953125
66567.939710	1.077034	11.847368	0.053020
66568.979735	1.043594	-92.675781	448.828125
66568.981736	1.080444	-92.675781	448.828125
66568.983736	1.077205	11.849256	0.048076
66570.027835	0.981184	-247.167969	-54.003906
66570.029834	1.081616	-247.167969	-54.003906
66570.031835	1.077734	11.855078	0.336328
66571.063881	0.939348	-99.511719	440.625000
66571.065880	1.082946	-99.511719	440.625000
66571.067881	1.078684	11.865528	0.051891
66572.112491	0.946513	-245.019531	-57.812500
66572.114493	1.082655	-245.019531	-57.812500
66572.116493	1.078423	11.862656	0.047170
66573.145131	1.017592	-104.785156	437.304687
66573.147132	1.081896	-104.785156	437.304687
66573.149139	1.078353	11.861885	0.519427
66574.200087	1.080605	-243.457031	-60.253906
66574.202088	1.077312	11.850434	0.052377
66575.234678	1.070602	-108.886719	434.960937
66575.236681	1.079524	-108.886719	434.960937
66575.238680	1.076441	11.840855	0.058272
66576.281725	0.834623	-240.917969	-61.328125
66576.283727	1.084079	-240.917969	-61.328125
66576.285728	1.079749	11.877234	0.051485
66577.322317	0.885928	-104.492187	447.753906
66577.324317	1.083527	-104.492187	447.753906
66577.326316	1.078887	11.867761	0.050806
66578.370345	0.750572	-239.453125	-60.742187
66578.372347	1.077364	-239.453125	-60.742187
66578.376344	1.076760	-239.453125	-60.742187
66578.378346	1.074639	11.821030	0.045728
66579.406380	0.684735	-109.277344	438.574219
66579.408382	1.063711	-109.277344	438.574219
66579.410384	1.079967	-109.277344	438.574219
66579.412382	1.076857	11.845427	0.056358
66580.454401	0.540472	-239.648437	-60.449219
66580.456402	1.005916	-239.648437	-60.449219
66580.458404	1.081773	-239.648437	-60.449219
66580.460404	1.078106	11.859164	0.053766
66581.496423	0.942886	-104.394531	450.292969
66581.498425	1.083260	-104.394531	450.292969
66581.500424	1.079009	11.869099	0.055656
66582.542913	0.416687	-240.625000	-58.886719
66582.544914	0.927042	-240.625000	-58.886719
66582.546916	1.084020	-240.625000	-58.886719
66582.548915	1.079600	11.875604	0.045754
66583.580947	0.866147	-106.933594	441.406250
66583.582950	1.084340	-106.933594	441.406250
66583.584950	1.079705	11.876755	0.052710
66584.631504	1.083634	-245.800781	-59.765625
66584.633508	1.078986	11.868851	0.050157
66585.665539	0.804145	-100.878906	452.246094
66585.667542	1.082674	-100.878906	452.246094
66585.669541	1.079382	11.873201	0.058152
66586.718040	0.759282	-247.851562	-55.957031
66586.720041	1.078401	-247.851562	-55.957031
66586.722042	1.079342	-247.851562	-55.957031
66586.724042	1.076498	11.841475	0.052999
66587.756099	0.855980	-100.292969	446.093750
66587.758101	1.080008	-100.292969	446.093750
66587.760100	1.076851	11.845356	0.048958
66588.804670	1.066967	-251.953125	-53.906250
66588.806671	1.079506	-251.953125	-53.906250
66588.808672	1.076411	11.840517	0.051285
66589.835205	0.787200	-100.292969	439.062500
66589.837204	1.084875	-100.292969	439.062500
66589.839205	1.083092	-100.292969	439.062500
66589.841206	1.080039	11.880433	0.054136
66590.887757	0.758127	-252.929687	-49.609375
66590.889758	1.078986	-252.929687	-49.609375
66590.891760	1.080143	-252.929687	-49.609375
66590.893760	1.077301	11.850310	0.057746
66591.932255	0.762021	-93.457031	451.855469
66591.934257	1.078521	-93.457031	451.855469
66591.936257	1.079097	-93.457031	451.855469
66591.938256	1.076285	11.839135	0.047516
66592.968309	0.701327	-254.394531	-50.683594
66592.970310	1.067983	-254.394531	-50.683594
66592.972311	1.080168	-254.394531	-50.683594
66592.974311	1.077118	11.848298	0.054350
66594.016915	0.709079	-102.441406	435.839844
66594.018918	1.069565	-102.441406	435.839844
66594.020918	1.079784	-102.441406	435.839844
66594.022919	1.076736	11.844098	0.052692
66595.049037	0.690243	-251.074219	-50.683594
66595.051039	1.065060	-251.074219	-50.683594
66595.053038	1.079901	-251.074219	-50.683594
66595.055037	1.076791	11.844700	0.055375
66596.113112	0.459013	-110.351562	429.882812
66596.115114	0.476038	-110.351562	429.882812
66596.117114	0.962873	-110.351562	429.882812
66596.119114	1.079065	11.869719	0.049725
66597.129136	2.000328	-243.847656	-50.781250
66597.131138	0.991909	-243.847656	-50.781250
66597.133140	1.081504	-243.847656	-50.781250
66597.135139	1.077723	11.854955	0.051469
66598.203254	1.522237	-115.917969	430.761719
66598.205255	1.079813	-115.917969	430.761719
66598.207254	1.079640	-115.917969	430.761719
66598.209255	1.076787	11.844656	0.055148
66599.211312	0.879087	-241.308594	-54.101562
66599.213314	1.083433	-241.308594	-54.101562
66599.215315	1.078878	11.867662	0.055308
66600.291380	0.552329	-121.582031	423.535156
66600.293380	1.012102	-121.582031	423.535156
66600.295381	1.081477	-121.582031	423.535156
66600.297381	1.077825	11.856071	0.053565
66601.301346	1.050733	-239.062500	-57.226562
66601.303347	1.080234	-239.062500	-57.226562
66601.305347	1.076971	11.846676	0.050371
66602.377940	0.963304	-117.187500	435.058594
66602.379942	1.082418	-117.187500	435.058594
66602.381946	1.078368	11.862053	0.055636
66603.384425	0.698895	-236.914062	-58.007812
66603.386427	1.067143	-236.914062	-58.007812
66603.388427	1.079760	-236.914062	-58.007812
66603.390427	1.076753	11.844284	0.050707
66604.462500	0.904625	-120.800781	426.660156
66604.464502	1.083468	-120.800781	426.660156
66604.466502	1.078878	11.867662	0.059396
66605.479140	1.039292	-235.546875	-58.300781
66605.481142	1.081691	-235.546875	-58.300781
66605.483141	1.078286	11.861149	0.048817
66606.547673	0.965064	-117.968750	432.910156
66606.549676	1.082653	-117.968750	432.910156
66606.551675	1.078652	11.865172	0.253690
66607.563728	1.005608	-238.476562	-60.839844
66607.565730	1.081598	-238.476562	-60.839844
66607.567730	1.077941	11.857355	0.050395
66608.628361	0.951543	-120.312500	428.125000
66608.630361	1.083628	-120.312500	428.125000
66608.632361	1.079462	11.874079	0.198773
66609.652428	0.962842	-237.500000	-59.375000
66609.654430	1.083299	-237.500000	-59.375000
66609.656430	1.079216	11.871376	0.049180
66610.716538	0.768714	-117.089844	434.570312
66610.718540	1.079738	-117.089844	434.570312
66610.720539	1.079533	-117.089844	434.570312
66610.724539	1.074442	11.818858	0.058210
66611.736583	0.801181	-239.453125	-60.449219
66611.738582	1.082089	-239.453125	-60.449219
66611.740582	1.078944	11.868382	0.052501
66612.801162	0.705537	-119.824219	428.613281
66612.803170	1.068652	-119.824219	428.613281
66612.805175	1.079587	-119.824219	428.613281
66612.807173	1.076540	11.841944	0.058858
66613.821256	0.755061	-239.843750	-59.960937
66613.823258	0.768435	-239.843750	-59.960937
66613.825258	1.079514	-239.843750	-59.960937
66613.827257	1.076607	11.842671	0.049710
66614.889817	0.627077	-120.312500	428.125000
66614.891820	1.045327	-120.312500	428.125000
66614.893818	1.080835	-120.312500	428.125000
66614.895819	1.077508	11.852588	0.059740
66615.909882	0.668887	-236.914062	-56.542969
66615.911882	1.059493	-236.914062	-56.542969
66615.913884	1.080512	-236.914062	-56.542969
66615.915883	1.077299	11.850293	0.048504
66616.980318	0.985525	-117.968750	434.765625
66616.982321	1.081411	-117.968750	434.765625
66616.984320	1.077657	11.854228	0.056302
66617.990346	0.590199	-240.429687	-57.031250
66617.992349	1.030023	-240.429687	-57.031250
66617.994347	1.080868	-240.429687	-57.031250
66617.996348	1.077407	11.851480	0.051181
66619.068361	0.786313	-123.339844	424.414062
66619.070362	1.083740	-123.339844	424.414062
66619.072361	1.081927	-123.339844	424.414062
66619.074361	1.079108	11.870188	0.057704
66620.075246	0.596724	-243.359375	-54.882812
66620.077249	1.032554	-243.359375	-54.882812
66620.079249	1.036638	-243.359375	-54.882812
66620.081248	1.076861	11.845471	0.052440
66621.153311	0.808522	-121.679687	427.343750
66621.155312	1.082691	-121.679687	427.343750
66621.157313	1.079138	11.870516	0.060430
66622.161918	1.010967	-249.023437	-52.343750
66622.163920	1.081210	-249.023437	-52.343750
66622.165921	1.077646	11.854103	0.052585
66623.242481	0.860847	-112.890625	441.699219
66623.244482	1.083791	-112.890625	441.699219
66623.246482	1.079133	11.870463	0.051669
66624.250525	1.507442	-251.367187	-48.046875
66624.252528	1.083263	-251.367187	-48.046875
66624.254528	1.079161	11.870773	0.211210
66625.324604	1.067457	-108.886719	439.941406
66625.326604	1.080003	-108.886719	439.941406
66625.328604	1.077029	11.847315	0.052485
66626.343189	0.870270	-256.640625	-46.582031
66626.345190	1.084664	-256.640625	-46.582031
66626.347190	1.084562	11.930186	0.055927
66627.405192	1.054236	-103.906250	442.089844
66627.407194	1.079858	-103.906250	442.089844
66627.409194	1.076649	11.843142	0.051131
66628.438187	1.083339	-262.109375	-46.972656
66628.440190	1.078657	11.865226	0.056897
66629.486803	1.084219	-100.097656	449.511719
66629.488806	1.079434	11.873778	0.051304
66630.525389	0.910176	-261.816406	-47.167969
66630.527391	1.084118	-261.816406	-47.167969
66630.529391	1.079551	11.875063	0.058480
66631.567480	1.084112	-102.246094	447.656250
66631.569479	1.079547	11.875019	0.051417
66632.616087	1.084057	-261.816406	-49.218750
66632.618088	1.079388	11.873264	0.056745
66633.650704	0.926023	-100.781250	457.128906
66633.654704	1.078080	-100.781250	457.128906
66633.656705	1.075607	11.831681	0.085385
66634.704780	1.082549	-259.570312	-51.074219
66634.706782	1.080643	-259.570312	-51.074219
66634.708779	1.077879	11.856665	0.056918
66635.738868	0.735667	-104.003906	454.296875
66635.740871	0.750136	-104.003906	454.296875
66635.742870	1.079656	-104.003906	454.296875
66635.744871	1.076737	11.844107	0.057459
66636.790935	0.577945	-258.203125	-51.855469
66636.792938	1.024559	-258.203125	-51.855469
66636.794937	1.081177	-258.203125	-51.855469
66636.796937	1.077680	11.854486	0.055212
66637.818993	0.563838	-104.296875	453.515625
66637.820997	1.017602	-104.296875	453.515625
66637.822994	1.080975	-104.296875	453.515625
66637.824995	1.077374	11.851109	0.057474
66638.877034	0.891624	-258.496094	-54.199219
66638.879035	1.083574	-258.496094	-54.199219
66638.881035	1.078940	11.868337	0.052531
66639.903996	0.604729	-110.058594	442.871094
66639.905997	1.036137	-110.058594	442.871094
66639.907997	1.080701	-110.058594	442.871094
66639.909998	1.077231	11.849539	0.061855
66640.964930	0.624258	-258.496094	-52.929687
66640.966933	1.043956	-258.496094	-52.929687
66640.968932	1.080408	-258.496094	-52.929687
66640.970934	1.077001	11.847013	0.053694
66641.992937	0.599392	-104.687500	453.222656
66641.994940	1.033847	-104.687500	453.222656
66641.996938	1.080603	-104.687500	453.222656
66641.998940	1.077311	11.850416	0.055846
66643.051032	0.929560	-260.253906	-53.027344
66643.053033	1.082949	-260.253906	-53.027344
66643.055034	1.078670	11.865368	0.102559
66644.079139	0.930528	-103.710937	453.417969
66644.081141	1.083199	-103.710937	453.417969
66644.083141	1.078893	11.867823	0.056795
66645.139226	0.743626	-263.281250	-51.464844
66645.141230	1.076221	-263.281250	-51.464844
66645.143230	1.079522	-263.281250	-51.464844
66645.145231	1.079328	11.872607	0.053292
66646.162175	0.464134	-104.589844	448.925781
66646.164175	0.960613	-104.589844	448.925781
66646.166176	1.084396	-104.589844	448.925781
66646.168177	1.080186	11.882046	0.057745
66647.224173	0.762476	-263.476562	-48.339844
66647.226175	1.078779	-263.476562	-48.339844
66647.228175	1.079430	-263.476562	-48.339844
66647.230174	1.079314	11.872449	0.053595
66648.252193	0.744656	-99.707031	456.738281
66648.254192	1.076781	-99.707031	456.738281
66648.258194	1.077145	-99.707031	456.738281
66648.260194	1.074956	11.824512	0.053596
66649.308247	0.558121	-267.578125	-46.972656
66649.310249	1.014735	-267.578125	-46.972656
66649.312249	1.080931	-267.578125	-46.972656
66649.314249	1.077441	11.851852	0.055675
66650.340292	0.517040	-101.953125	449.218750
66650.342294	0.992985	-101.953125	449.218750
66650.344295	1.082336	-101.953125	449.218750
66650.346295	1.078464	11.863099	0.054395
66651.390366	0.901278	-266.796875	-45.019531
66651.392368	1.083487	-266.796875	-45.019531
66651.394370	1.078895	11.867848	0.056163
66652.434421	0.797642	-101.074219	452.441406
66652.436424	1.081888	-101.074219	452.441406
66652.438421	1.078999	11.868992	0.052747
66653.472450	1.074529	-266.894531	-46.191406
66653.474457	1.079650	-266.894531	-46.191406
66653.476461	1.076651	11.843158	0.056737
66654.525051	1.071202	-105.566406	450.781250
66654.527053	1.080101	-105.566406	450.781250
66654.529053	1.077150	11.848654	0.052524
66655.551547	0.817791	-261.035156	-45.898437
66655.553549	1.082663	-261.035156	-45.898437
66655.555549	1.078816	11.866981	0.057095
66656.615547	0.565857	-113.281250	442.089844
66656.617547	1.018541	-113.281250	442.089844
66656.619548	1.080810	-113.281250	442.089844
66656.621548	1.077271	11.849982	0.056523
66657.631583	0.628065	-259.472656	-48.632812
66657.633584	1.044928	-259.472656	-48.632812
66657.635585	1.079728	-259.472656	-48.632812
66657.637584	1.076432	11.840757	0.058608
66658.708230	1.082016	-116.503906	440.136719
66658.710232	1.078155	-116.503906	440.136719
66658.712232	1.075847	11.834313	0.055831
66659.716259	0.580313	-254.492187	-50.292969
66659.718262	1.025119	-254.492187	-50.292969
66659.720260	1.080240	-254.492187	-50.292969
66659.722261	1.076718	11.843903	0.056913
66660.790274	0.802187	-122.753906	426.855469
66660.792274	1.082849	-122.753906	426.855469
66660.794274	1.079712	11.876835	0.059327
66661.806339	0.866596	-253.125000	-53.222656
66661.808341	1.083842	-253.125000	-53.222656
66661.810341	1.079149	11.870641	0.051530
66662.879326	0.825817	-124.218750	421.777344
66662.881329	1.083286	-124.218750	421.777344
66662.883328	1.079117	11.870286	0.059630
66663.892258	1.044021	-253.125000	-54.882812
66663.894259	1.079885	-253.125000	-54.882812
66663.896262	1.076551	11.842059	0.053558
66664.964324	0.861044	-123.632812	422.753906
66664.966328	1.084534	-123.632812	422.753906
66664.968329	1.079877	11.878653	0.057236
66665.978888	0.537880	-249.023437	-53.125000
66665.980891	1.004324	-249.023437	-53.125000
66665.982889	1.081450	-249.023437	-53.125000
66665.984888	1.077708	11.854786	0.054170
66667.051449	1.083696	-120.800781	426.953125
66667.053453	1.079222	11.871447	0.061712
66668.065536	0.970623	-251.562500	-54.980469
66668.067539	1.082144	-251.562500	-54.980469
66668.069538	1.078191	11.860103	0.055385
66669.133560	0.734911	-120.214844	428.125000
66669.135562	1.074809	-120.214844	428.125000
66669.137563	1.079642	-120.214844	428.125000
66669.139563	1.076628	11.842911	0.060121
66670.155655	1.082872	-252.832031	-55.175781
66670.157658	1.081073	-252.832031	-55.175781
66670.159657	1.078325	11.861574	0.051796
66671.218706	0.808398	-122.851562	423.046875
66671.220706	1.083523	-122.851562	423.046875
66671.222708	1.079911	11.879016	0.060992
66672.238709	0.833973	-253.906250	-54.882812
66672.240710	1.083381	-253.906250	-54.882812
66672.242710	1.083422	11.917638	0.053440
66673.306807	0.586410	-124.804687	419.921875
66673.308809	1.028127	-124.804687	419.921875
66673.310810	1.080622	-124.804687	419.921875
66673.312808	1.077123	11.848352	0.060258
66674.323345	0.775653	-251.855469	-51.953125
66674.325346	1.079749	-251.855469	-51.953125
66674.327346	1.078758	-251.855469	-51.953125
66674.329346	1.075907	11.834978	0.054220
66675.395340	1.664031	-123.828125	425.683594
66675.397341	0.966977	-123.828125	425.683594
66675.399343	1.085718	-123.828125	425.683594
66675.401341	1.081621	11.897830	0.058914
66676.409463	1.026952	-253.417969	-50.878906
66676.411465	1.081084	-253.417969	-50.878906
66676.413465	1.077593	11.853518	0.054247
66677.491477	1.078041	-127.246094	414.941406
66677.493479	1.079527	-127.246094	414.941406
66677.495478	1.076711	11.843822	0.061678
66678.484439	0.660856	-253.808594	-48.144531
66678.486443	1.056828	-253.808594	-48.144531
66678.488444	1.080217	-253.808594	-48.144531
66678.490442	1.077119	11.848308	0.057261
66679.578901	0.872693	-122.167969	425.488281
66679.580903	1.083247	-122.167969	425.488281
66679.582902	1.078552	11.864074	0.058023
66680.575446	1.060459	-258.496094	-45.410156
66680.577447	1.079896	-258.496094	-45.410156
66680.579448	1.076824	11.845063	0.057102
66681.663953	1.079730	-114.648437	437.792969
66681.665955	1.077415	11.851569	0.122960
66682.668010	1.008464	-263.281250	-44.140625
66682.670011	1.081324	-263.281250	-44.140625
66682.672011	1.077685	11.854538	0.057690
66683.740102	0.788710	-110.742187	439.355469
66683.742100	1.084029	-110.742187	439.355469
66683.744102	1.081971	-110.742187	439.355469
66683.746101	1.079136	11.870499	0.056400
66684.756157	0.852908	-269.335937	-44.042969
66684.758158	1.083442	-269.335937	-44.042969
66684.760160	1.078827	11.867096	0.059517
66685.820231	0.621662	-105.078125	447.460937
66685.822233	1.042641	-105.078125	447.460937
66685.824235	1.079929	-105.078125	447.460937
66685.826233	1.076563	11.842193	0.057115
66686.848330	0.622666	-270.019531	-42.871094
66686.850337	1.043370	-270.019531	-42.871094
66686.852340	1.080438	-270.019531	-42.871094
66686.854340	1.077095	11.848042	0.060336
66687.908409	1.082039	-106.933594	443.359375
66687.910410	1.077838	-106.933594	443.359375
66687.912410	1.075324	11.828562	0.054554
66688.936938	0.530215	-272.656250	-45.312500
66688.938938	0.999890	-272.656250	-45.312500
66688.940940	1.080748	-272.656250	-45.312500
66688.942940	1.077022	11.847244	0.059694
66689.985569	0.545127	-108.398437	442.187500
66689.987573	1.007794	-108.398437	442.187500
66689.989572	1.080520	-108.398437	442.187500
66689.991572	1.076926	11.846189	0.058699
66691.026190	0.606995	-270.117187	-46.093750
66691.028192	1.036895	-270.117187	-46.093750
66691.030194	1.080363	-270.117187	-46.093750
66691.032193	1.076951	11.846464	0.058890
66692.070237	0.487395	-106.738281	447.265625
66692.072238	0.974949	-106.738281	447.265625
66692.074240	1.081920	-106.738281	447.265625
66692.076240	1.078115	11.859270	0.060071
66693.116289	0.894252	-267.382812	-46.386719
66693.118292	1.084480	-267.382812	-46.386719
66693.120293	1.079860	11.878457	0.057537
66694.156345	0.814282	-112.500000	435.644531
66694.158348	1.084147	-112.500000	435.644531
66694.160346	1.080323	11.883553	0.059703
66695.201346	0.934651	-268.847656	-48.437500
66695.203348	1.082395	-268.847656	-48.437500
66695.205348	1.078103	11.859138	0.134090
66696.245427	0.845548	-107.226562	448.046875
66696.247427	1.084672	-107.226562	448.046875
66696.249429	1.080098	11.881081	0.058583
66697.285925	0.873210	-271.093750	-48.828125
66697.287927	1.083430	-271.093750	-48.828125
66697.289929	1.078717	11.865882	0.058877
66698.328906	0.485528	-110.839844	440.429687
66698.330908	0.974111	-110.839844	440.429687
66698.332909	1.082518	-110.839844	440.429687
66698.334908	1.078542	11.863958	0.061091
66699.374947	0.889675	-269.433594	-46.972656
66699.376949	1.084251	-269.433594	-46.972656
66699.380956	1.077035	11.847385	0.058014
66700.415023	0.813984	-112.597656	435.156250
66700.417026	1.083258	-112.597656	435.156250
66700.419025	1.079397	11.873370	0.061156
66701.459973	0.922879	-272.265625	-46.191406
66701.461976	1.083948	-272.265625	-46.191406
66701.463975	1.079563	11.875196	0.086171
66702.504011	0.751119	-105.859375	449.121094
66702.506013	1.083516	-105.859375	449.121094
66702.508015	1.079629	11.875922	0.058708
66703.544055	0.732656	-272.167969	-43.750000
66703.546058	1.074332	-272.167969	-43.750000
66703.548057	1.079642	-272.167969	-43.750000
66703.550058	1.076729	11.844018	0.060404
66704.592537	0.711238	-106.542969	446.582031
66704.594539	1.070311	-106.542969	446.582031
66704.596539	1.080069	-106.542969	446.582031
66704.598538	1.077060	11.847661	0.058171
66705.628624	0.658562	-276.562500	-43.652344
66705.630624	1.055472	-276.562500	-43.652344
66705.632625	1.079369	-276.562500	-43.652344
66705.634624	1.076113	11.837239	0.059796
66706.683217	1.049643	-109.570312	439.746094
66706.685218	1.080334	-109.570312	439.746094
66706.687219	1.077105	11.848157	0.055518
66707.711795	1.078286	-276.660156	-43.359375
66707.713797	1.078991	-276.660156	-43.359375
66707.715796	1.075997	11.835971	0.057907
66708.776341	1.055215	-110.449219	442.187500
66708.778345	1.080121	-110.449219	442.187500
66708.780344	1.076905	11.845959	0.056394
66709.792399	1.072382	-273.730469	-43.066406
66709.794399	1.079743	-273.730469	-43.066406
66709.796400	1.076749	11.844240	0.059988
66710.865016	1.026214	-118.750000	427.636719
66710.869015	1.077024	-118.750000	427.636719
66710.871023	1.074639	11.821030	0.057611
66711.871050	0.691676	-268.750000	-43.652344
66711.873053	1.065224	-268.750000	-43.652344
66711.875056	1.079551	-268.750000	-43.652344
66711.877060	1.076446	11.840908	0.060089
66712.957146	0.860282	-118.652344	432.714844
66712.959147	1.084245	-118.652344	432.714844
66712.961148	1.079584	11.875426	0.057190
66713.957168	0.980180	-266.796875	-45.800781
66713.959170	1.080851	-266.796875	-45.800781
66713.961170	1.077054	11.847590	0.057824
66715.047747	1.079977	-124.609375	420.214844
66715.049747	1.079793	-124.609375	420.214844
66715.051747	1.076988	11.846863	0.058376
66716.042293	1.018153	-262.890625	-47.656250
66716.044295	1.080326	-262.890625	-47.656250
66716.046295	1.076740	11.844142	0.057357
66717.130852	0.830781	-126.562500	414.355469
66717.132854	1.082735	-126.562500	414.355469
66717.134854	1.078530	11.863834	0.061223
66718.130850	0.956362	-260.937500	-49.218750
66718.132851	1.082609	-260.937500	-49.218750
66718.134852	1.078557	11.864127	0.054548
66719.215420	0.754942	-127.343750	409.960937
66719.217422	1.077890	-127.343750	409.960937
66719.219422	1.079430	-127.343750	409.960937
66719.221423	1.076521	11.841731	0.064255
66720.215423	0.896585	-260.644531	-50.781250
66720.217424	1.084136	-260.644531	-50.781250
66720.219426	1.079522	11.874743	0.054938
66721.300035	0.687562	-127.343750	407.519531
66721.302038	1.064015	-127.343750	407.519531
66721.304037	1.079350	-127.343750	407.519531
66721.306035	1.076288	11.839170	0.063434
66722.300054	0.837808	-261.718750	-51.269531
66722.302057	0.851126	-261.718750	-51.269531
66722.304062	1.079786	11.877642	0.057707
66723.388989	0.685783	-126.464844	408.398437
66723.390989	1.064060	-126.464844	408.398437
66723.392990	1.080095	-126.464844	408.398437
66723.394990	1.077021	11.847235	0.060602
66724.389046	0.846167	-256.835937	-49.414062
66724.391049	1.084906	-256.835937	-49.414062
66724.393049	1.080346	11.883810	0.053895
66725.473157	0.501345	-124.804687	411.621094
66725.475160	0.519113	-124.804687	411.621094
66725.477158	1.081176	-124.804687	411.621094
66725.479158	1.077369	11.851055	0.062602
66726.477196	1.079724	-262.792969	-51.171875
66726.479197	1.076446	-262.792969	-51.171875
66726.481197	1.074254	11.816793	0.055333
66727.558152	0.535059	-127.734375	407.324219
66727.560154	1.002478	-127.734375	407.324219
66727.562154	1.080480	-127.734375	407.324219
66727.564153	1.076807	11.844877	0.063442
66728.555670	2.585125	-263.085937	-49.707031
66728.561023	1.083637	-263.085937	-49.707031
66728.563025	1.079026	11.869285	0.056668
66729.647591	0.664523	-127.636719	409.765625
66729.649592	1.057855	-127.636719	409.765625
66729.651592	1.060102	-127.636719	409.765625
66729.653593	1.076797	11.844771	0.062894
66730.643634	0.845366	-264.453125	-47.753906
66730.645638	1.083765	-264.453125	-47.753906
66730.647636	1.079185	11.871030	0.059461
66731.733686	0.957170	-127.441406	413.378906
66731.735689	1.082473	-127.441406	413.378906
66731.737690	1.082166	11.903830	0.229769
66732.732241	0.757471	-264.062500	-44.238281
66732.734242	1.077903	-264.062500	-44.238281
66732.736242	1.079235	-264.062500	-44.238281
66732.738242	1.076305	11.839356	0.057095
66733.820244	1.082921	-121.289062	427.246094
66733.822246	1.078351	-121.289062	427.246094
66733.826243	1.073871	11.812584	0.059117
66734.818328	1.013623	-273.242187	-43.359375
66734.820329	1.080462	-273.242187	-43.359375
66734.822329	1.076849	11.845339	0.059743
66735.902881	0.842930	-118.261719	430.859375
66735.904883	1.083424	-118.261719	430.859375
66735.906881	1.078941	11.868345	0.059229
66736.910917	0.938184	-275.195312	-41.503906
66736.912918	1.082594	-275.195312	-41.503906
66736.914918	1.078338	11.861715	0.140302
66737.983000	0.677685	-113.378906	436.425781
66737.985001	1.061595	-113.378906	436.425781
66737.989000	1.076678	-113.378906	436.425781
66737.991002	1.074463	11.819088	0.059844
66738.999040	0.738151	-281.054687	-40.820312
66739.001043	1.075177	-281.054687	-40.820312
66739.003043	1.079475	-281.054687	-40.820312
66739.005044	1.076607	11.842680	0.061220
66740.069713	1.049023	-109.960937	440.429687
66740.071718	1.080097	-109.960937	440.429687
66740.073715	1.076734	11.844070	0.056714
66741.092288	0.786233	-280.957031	-40.332031
66741.094286	1.083183	-280.957031	-40.332031
66741.096287	1.081336	-280.957031	-40.332031
66741.098285	1.078497	11.863472	0.060635
66742.150370	1.037739	-109.570312	439.941406
66742.152369	1.079826	-109.570312	439.941406
66742.154371	1.076461	11.841066	0.057923
66743.182882	1.066118	-283.300781	-41.503906
66743.184883	1.080412	-283.300781	-41.503906
66743.186884	1.077456	11.852021	0.061088
66744.229504	0.704811	-109.570312	439.746094
66744.231506	1.068628	-109.570312	439.746094
66744.233506	1.079767	-109.570312	439.746094
66744.235506	1.076741	11.844151	0.060376
66745.269565	0.620996	-279.492187	-41.406250
66745.271565	1.042722	-279.492187	-41.406250
66745.273566	1.080557	-279.492187	-41.406250
66745.275565	1.077274	11.850010	0.061610
66746.314042	0.619043	-107.421875	444.140625
66746.316048	1.041977	-107.421875	444.140625
66746.318053	1.080543	-107.421875	444.140625
66746.320050	1.077280	11.850080	0.060941
66747.360138	0.992150	-278.906250	-42.089844
66747.362140	1.081691	-278.906250	-42.089844
66747.364141	1.077864	11.856504	0.389841
66748.404133	0.904684	-107.519531	443.847656
66748.406134	1.083866	-107.519531	443.847656
66748.408135	1.079147	11.870614	0.059876
66749.446110	1.082934	-283.105469	-43.945312
66749.448113	1.079679	-283.105469	-43.945312
66749.450113	1.076935	11.846287	0.060005
66750.489135	0.932108	-108.496094	441.503906
66750.491137	1.084006	-108.496094	441.503906
66750.493136	1.079650	11.876153	0.115836
66751.533128	0.819599	-278.613281	-42.578125
66751.535130	1.084466	-278.613281	-42.578125
66751.537129	1.080491	11.885397	0.057120
66752.573138	0.724044	-107.910156	442.675781
66752.575139	1.072438	-107.910156	442.675781
66752.577137	1.079327	-107.910156	442.675781
66752.579139	1.076312	11.839428	0.060918
66753.617200	0.615991	-280.859375	-41.894531
66753.619202	1.040495	-280.859375	-41.894531
66753.621202	1.080177	-280.859375	-41.894531
66753.623202	1.076876	11.845640	0.061681
66754.661252	0.503758	-107.031250	445.312500
66754.663256	0.985078	-107.031250	445.312500
66754.665253	1.081872	-107.031250	445.312500
66754.667255	1.078058	11.858641	0.060823
66755.701811	0.552041	-284.863281	-41.503906
66755.703813	1.011237	-284.863281	-41.503906
66755.705812	1.080200	-284.863281	-41.503906
66755.707812	1.076589	11.842476	0.062170
66756.746355	0.567783	-109.082031	440.722656
66756.748358	1.019835	-109.082031	440.722656
66756.750358	1.081548	-109.082031	440.722656
66756.752358	1.077951	11.857462	0.063409
66757.788412	0.968117	-285.058594	-40.527344
66757.790414	1.082394	-285.058594	-40.527344
66757.792413	1.078356	11.861920	0.061212
66758.836464	0.861679	-111.230469	438.574219
66758.838465	1.083628	-111.230469	438.574219
66758.840464	1.078858	11.867441	0.061844
66759.868525	0.828082	-285.351562	-40.527344
66759.870526	1.083326	-285.351562	-40.527344
66759.872527	1.079025	11.869275	0.062340
66760.930635	1.048025	-114.160156	432.226562
66760.932638	1.079799	-114.160156	432.226562
66760.934638	1.076482	11.841297	0.060203
66761.952687	0.648906	-284.082031	-40.527344
66761.954689	1.052269	-284.082031	-40.527344
66761.956693	1.079467	-284.082031	-40.527344
66761.958700	1.076227	11.838496	0.059197
66763.018782	0.928179	-113.964844	436.523437
66763.020783	1.082543	-113.964844	436.523437
66763.022782	1.078186	11.860050	0.060242
66764.036791	1.083075	-280.273437	-40.234375
66764.038794	1.079002	11.869019	0.260849
66765.111302	0.803894	-117.675781	430.957031
66765.113301	1.082655	-117.675781	430.957031
66765.115303	1.079399	11.873387	0.061441
66766.115307	0.918905	-275.585937	-41.406250
66766.117308	1.083746	-275.585937	-41.406250
66766.119311	1.079255	11.871810	0.078707
66767.199344	0.567614	-122.558594	421.191406
66767.201345	1.019377	-122.558594	421.191406
66767.203346	1.080881	-122.558594	421.191406
66767.205347	1.077365	11.851010	0.061242
66768.199385	0.725370	-277.832031	-43.945312
66768.201386	1.073169	-277.832031	-43.945312
66768.203386	1.079915	-277.832031	-43.945312
66768.205385	1.076916	11.846074	0.059943
66769.285460	0.886853	-128.906250	406.835937
66769.287462	1.082768	-128.906250	406.835937
66769.289462	1.078214	11.860352	0.064093
66770.286022	1.059062	-269.824219	-44.824219
66770.288023	1.080001	-269.824219	-44.824219
66770.290024	1.076772	11.844497	0.058149
66771.374016	0.787602	-127.148437	406.445312
66771.376013	1.083703	-127.148437	406.445312
66771.378013	1.081854	-127.148437	406.445312
66771.380014	1.078972	11.868690	0.064678
66772.374076	0.937195	-272.656250	-46.875000
66772.376076	1.083777	-272.656250	-46.875000
66772.378075	1.079379	11.873166	0.057343
66773.458650	0.730068	-129.199219	399.218750
66773.460653	1.073921	-129.199219	399.218750
66773.462660	1.079637	-129.199219	399.218750
66773.464660	1.076661	11.843273	0.065817
66774.460718	1.083038	-273.046875	-48.046875
66774.464718	1.075809	11.833898	0.056452
66775.543655	0.765384	-128.320312	399.316406
66775.545657	1.079092	-128.320312	399.316406
66775.547657	1.079253	-128.320312	399.316406
66775.549656	1.076431	11.840738	0.064433
66776.545711	1.083531	-272.558594	-47.949219
66776.547713	1.079031	11.869338	0.058786
66777.632333	0.689436	-131.347656	392.968750
66777.634336	1.064920	-131.347656	392.968750
66777.636335	1.079823	-131.347656	392.968750
66777.638337	1.076697	11.843672	0.061713
66778.632387	0.847779	-269.531250	-46.679687
66778.634391	1.083774	-269.531250	-46.679687
66778.636393	1.079232	11.871553	0.056947
66779.718347	0.959756	-127.050781	401.660156
66779.720350	1.083420	-127.050781	401.660156
66779.722350	1.079314	11.872458	0.246608
66780.716397	0.629680	-275.097656	-46.679687
66780.718398	1.045668	-275.097656	-46.679687
66780.720398	1.079857	-275.097656	-46.679687
66780.722400	1.076578	11.842360	0.059450
66781.808528	1.084663	-129.003906	399.707031
66781.810530	1.083070	-129.003906	399.707031
66781.812529	1.080175	11.881923	0.061394
66782.803105	1.028982	-272.265625	-44.238281
66782.807106	1.076877	-272.265625	-44.238281
66782.809106	1.074607	11.820675	0.059684
66783.891190	0.733431	-125.976562	409.765625
66783.893193	1.074136	-125.976562	409.765625
66783.895193	1.079286	-125.976562	409.765625
66783.897194	1.076213	11.838346	0.062852
66784.891252	0.889336	-279.394531	-43.066406
66784.893256	1.083780	-279.394531	-43.066406
66784.895253	1.079101	11.870110	0.059382
66785.976193	0.769036	-125.976562	411.914062
66785.978195	1.079881	-125.976562	411.914062
66785.980195	1.079638	-125.976562	411.914062
66785.982195	1.076795	11.844745	0.062687
66786.978673	0.494698	-279.296875	-40.332031
66786.980677	0.979146	-279.296875	-40.332031
66786.982676	1.080989	-279.296875	-40.332031
66786.984676	1.077035	11.847385	0.059566
66788.060731	0.682106	-118.457031	427.050781
66788.062731	1.062725	-118.457031	427.050781
66788.064732	1.079641	-118.457031	427.050781
66788.066732	1.076545	11.841997	0.060681
66789.068732	0.783332	-283.593750	-38.964844
66789.072726	1.080930	-283.593750	-38.964844
66789.074730	1.078228	-283.593750	-38.964844
66789.078731	1.074810	11.822907	0.059972
66790.140805	0.501908	-114.648437	432.519531
66790.142805	0.983804	-114.648437	432.519531
66790.144804	1.081549	-114.648437	432.519531
66790.146806	1.077747	11.855220	0.062219
66791.158867	1.020898	-290.039062	-39.648437
66791.160868	1.080891	-290.039062	-39.648437
66791.162869	1.077347	11.850816	0.061191
66792.227440	0.942827	-115.234375	431.250000
66792.229440	1.082906	-115.234375	431.250000
66792.231442	1.078638	11.865022	0.168269
66793.250005	0.588482	-291.113281	-39.550781
66793.252006	1.029287	-291.113281	-39.550781
66793.254005	1.081030	-291.113281	-39.550781
66793.256007	1.077585	11.853438	0.061563
66794.312014	1.078238	-113.085937	431.542969
66794.314016	1.075706	11.832771	0.058286
66795.344603	1.077464	-293.066406	-39.062500
66795.346607	1.074970	11.824672	0.062721
66796.387176	0.494109	-111.816406	432.519531
66796.389177	0.978867	-111.816406	432.519531
66796.391177	1.081301	-111.816406	432.519531
66796.393178	1.077422	11.851640	0.063896
66797.429220	0.918007	-294.824219	-40.234375
66797.431228	1.082918	-294.824219	-40.234375
66797.433228	1.078459	11.863046	0.061770
66798.472233	0.548574	-110.449219	434.570312
66798.474235	1.009529	-110.449219	434.570312
66798.476234	1.080389	-110.449219	434.570312
66798.478235	1.076743	11.844170	0.064528
66799.516303	0.436735	-288.964844	-39.257812
66799.518306	0.941396	-288.964844	-39.257812
66799.520306	1.084115	-288.964844	-39.257812
66799.522305	1.079871	11.878582	0.059967
66800.560346	1.082748	-108.593750	437.109375
66800.562350	1.078188	11.860067	0.064149
66801.602355	0.751594	-293.457031	-40.820312
66801.604357	1.077265	-293.457031	-40.820312
66801.606355	1.079164	-293.457031	-40.820312
66801.608357	1.076300	11.839303	0.059889
66802.646421	0.644008	-111.132812	431.347656
66802.648424	1.050961	-111.132812	431.347656
66802.650423	1.080027	-111.132812	431.347656
66802.652423	1.079865	11.878510	0.062098
66803.686503	0.564695	-295.019531	-41.210937
66803.688504	1.017682	-295.019531	-41.210937
66803.690505	1.080403	-295.019531	-41.210937
66803.694504	1.074430	11.818725	0.063607
66804.732556	0.949157	-110.449219	433.007812
66804.734559	1.083867	-110.449219	433.007812
66804.738557	1.077265	11.849912	0.184909
66805.776600	0.856864	-289.843750	-39.062500
66805.778602	1.083973	-289.843750	-39.062500
66805.780602	1.079289	11.872183	0.059649
66806.823092	1.083771	-108.691406	436.425781
66806.825093	1.079033	-108.691406	436.425781
66806.827093	1.076537	11.841908	0.061756
66807.863161	1.081231	-294.335937	-38.671875
66807.865163	1.079593	-294.335937	-38.671875
66807.867165	1.076807	11.844877	0.059247
66808.905715	0.799855	-111.816406	430.957031
66808.907717	1.082329	-111.816406	430.957031
66808.909718	1.079164	11.870800	0.063829
66809.945720	0.702703	-294.726562	-37.500000
66809.947722	1.068284	-294.726562	-37.500000
66809.949728	1.080020	-294.726562	-37.500000
66809.951727	1.076995	11.846943	0.059433
66810.994669	0.794705	-113.378906	428.027344
66810.996671	1.082263	-113.378906	428.027344
66810.998669	1.079463	-113.378906	428.027344
66811.000669	1.076787	11.844656	0.064779
66812.029253	1.082623	-294.628906	-37.500000
66812.031256	1.078053	11.858579	0.059296
66813.087851	0.831592	-111.621094	434.277344
66813.089853	1.083133	-111.621094	434.277344
66813.091851	1.078805	11.866856	0.060066
66814.107890	1.314562	-293.945312	-37.597656
66814.109891	1.083074	-293.945312	-37.597656
66814.111892	1.078328	11.861609	0.060457
66815.176857	0.842664	-118.359375	422.460937
66815.178859	1.082740	-118.359375	422.460937
66815.180859	1.078310	11.861416	0.062518
66816.188987	0.935446	-289.648437	-38.085937
66816.190989	1.082932	-289.648437	-38.085937
66816.192991	1.078684	11.865528	0.136734
66817.271035	1.040772	-118.457031	422.851562
66817.275034	1.076590	-118.457031	422.851562
66817.277035	1.074342	11.817760	0.060521
66818.273090	0.753623	-282.519531	-38.281250
66818.275093	1.077350	-282.519531	-38.281250
66818.277092	1.079114	-282.519531	-38.281250
66818.279092	1.076204	11.838240	0.061221
66819.359615	0.993138	-123.339844	412.500000
66819.361615	1.081777	-123.339844	412.500000
66819.363616	1.081637	11.898007	0.060579
66820.359664	1.061785	-279.589844	-40.136719
66820.361665	1.079224	-279.589844	-40.136719
66820.363665	1.079114	11.870258	0.058637
66821.446145	1.082615	-125.195312	404.980469
66821.448148	1.078388	11.862265	0.141870
66822.442183	0.591742	-283.984375	-43.066406
66822.444185	1.030438	-283.984375	-43.066406
66822.446184	1.080603	-283.984375	-43.066406
66822.448184	1.077109	11.848202	0.061592
66823.532177	0.710453	-129.394531	393.847656
66823.534178	1.070185	-129.394531	393.847656
66823.536178	1.080081	-129.394531	393.847656
66823.538177	1.079953	11.879485	0.064401
66824.530708	0.472557	-275.878906	-43.066406
66824.532711	0.965311	-275.878906	-43.066406
66824.534710	1.081565	-275.878906	-43.066406
66824.536712	1.077630	11.853927	0.059197
66825.617197	0.752015	-127.148437	394.140625
66825.619200	1.076883	-127.148437	394.140625
66825.623197	1.075836	-127.148437	394.140625
66825.625200	1.073746	11.811202	0.063084
66826.617239	0.899886	-280.859375	-45.019531
66826.619241	1.083728	-280.859375	-45.019531
66826.621241	1.079118	11.870296	0.058317
66827.703818	1.063656	-129.199219	384.179687
66827.705823	1.079730	-129.199219	384.179687
66827.707824	1.076556	11.842113	0.063632
66828.708352	1.083007	-279.980469	-44.238281
66828.710355	1.078724	-279.980469	-44.238281
66828.712355	1.076295	11.839251	0.117514
66829.788426	1.041766	-124.414062	393.847656
66829.790426	1.080991	-124.414062	393.847656
66829.794425	1.075322	11.828545	0.062289
66830.794452	0.723768	-279.492187	-43.750000
66830.796453	1.072369	-279.492187	-43.750000
66830.798453	1.079298	-279.492187	-43.750000
66830.800453	1.076222	11.838444	0.060432
66831.874514	1.082199	-128.320312	386.816406
66831.876515	1.077791	11.855698	0.084826
66832.879071	0.661414	-282.031250	-43.164062
66832.881073	1.057254	-282.031250	-43.164062
66832.883073	1.080611	-282.031250	-43.164062
66832.885072	1.077403	11.851437	0.060561
66833.961090	0.835510	-129.394531	387.695312
66833.963091	1.082922	-129.394531	387.695312
66833.965092	1.078592	11.864508	0.061692
66834.965054	0.933782	-284.667969	-41.992187
66834.967055	1.082798	-284.667969	-41.992187
66834.969057	1.078539	11.863932	0.130374
66836.047024	1.031877	-128.808594	397.070312
66836.049026	1.080595	-128.808594	397.070312
66836.051025	1.077170	11.848874	0.626262
66837.053029	0.697571	-289.062500	-39.843750
66837.055031	1.066693	-289.062500	-39.843750
66837.057031	1.079547	-289.062500	-39.843750
66837.059032	1.079420	11.873618	0.061966
66838.133083	1.083069	-125.097656	408.496094
66838.135086	1.078480	11.863285	0.058470
66839.137657	0.636428	-295.410156	-38.183594
66839.139660	1.048494	-295.410156	-38.183594
66839.141658	1.080353	-295.410156	-38.183594
66839.143659	1.077054	11.847598	0.064379
66840.220252	1.078085	-122.363281	421.386719
66840.222253	1.077991	11.857905	0.057483
66841.228846	1.066141	-300.488281	-37.402344
66841.230848	1.079301	-300.488281	-37.402344
66841.234845	1.073963	11.813594	0.062252
66842.302882	1.082625	-116.992187	429.785156
66842.304890	1.078159	11.859749	0.053202
66843.315483	0.612702	-301.464844	-36.914062
66843.317485	1.038934	-301.464844	-36.914062
66843.319485	1.079851	-301.464844	-36.914062
66843.321486	1.076420	11.840615	0.060499
66844.381574	0.897840	-113.281250	431.542969
66844.383577	1.083099	-113.281250	431.542969
66844.385577	1.078518	11.863701	0.062742
66845.409663	0.895242	-301.660156	-36.132812
66845.411664	1.084133	-301.660156	-36.132812
66845.413664	1.079471	11.874185	0.062172
66846.461696	0.740023	-111.718750	431.542969
66846.463699	1.075385	-111.718750	431.542969
66846.465700	1.079199	-111.718750	431.542969
66846.467699	1.076237	11.838603	0.060739
66847.495246	2.539374	-304.882812	-37.207031
66847.500588	1.082634	-304.882812	-37.207031
66847.502590	1.078108	11.859190	0.066206
66848.543150	0.907581	-112.500000	426.757812
66848.545153	1.083098	-112.500000	426.757812
66848.547154	1.078676	11.865438	0.062833
66849.591182	0.776338	-301.757812	-37.695312
66849.593183	1.080095	-301.757812	-37.695312
66849.595185	1.079030	-301.757812	-37.695312
66849.597183	1.076144	11.837584	0.060711
66850.627205	0.706894	-113.867187	422.167969
66850.629205	1.068826	-113.867187	422.167969
66850.631205	1.079431	-113.867187	422.167969
66850.633206	1.076395	11.840349	0.066298
66851.675790	0.709957	-303.613281	-37.988281
66851.677793	1.068833	-303.613281	-37.988281
66851.679792	1.078576	-303.613281	-37.988281
66851.681791	1.075395	11.829342	0.063533
66852.711855	0.647988	-114.453125	418.847656
66852.713859	1.052236	-114.453125	418.847656
66852.715858	1.079758	-114.453125	418.847656
66852.717860	1.076464	11.841102	0.064193
66853.762771	1.074631	-304.980469	-38.378906
66853.764773	1.078963	-304.980469	-38.378906
66853.766774	1.076067	11.836733	0.064993
66854.801322	0.779993	-109.472656	429.003906
66854.803323	1.081316	-109.472656	429.003906
66854.805322	1.079872	-109.472656	429.003906
66854.807323	1.077070	11.847767	0.061655
66855.849339	0.635907	-301.367187	-37.207031
66855.851342	1.048006	-301.367187	-37.207031
66855.853342	1.079952	-301.367187	-37.207031
66855.855341	1.076800	11.844799	0.064680
66856.887437	1.028014	-112.695312	421.386719
66856.889439	1.080460	-112.695312	421.386719
66856.891440	1.077053	11.847581	0.063140
66857.933967	0.572246	-303.222656	-37.597656
66857.935969	0.591425	-303.222656	-37.597656
66857.937972	1.081061	-303.222656	-37.597656
66857.939969	1.077585	11.853430	0.065200
66858.970028	0.514300	-113.671875	420.117187
66858.972029	0.991082	-113.671875	420.117187
66858.974029	1.081551	-113.671875	420.117187
66858.976029	1.077771	11.855476	0.064765
