time (s)	coil I (A)	last det (V)	int current (uC)
7569.152251	0.458924	452.148437	-5.664062
7569.154252	0.497518	452.148437	-5.664062
7569.156253	0.495979	5.455768	0.523329
7570.174359	0.495462	154.394531	-82.714844
7570.176362	0.494411	154.394531	-82.714844
7570.180359	0.493356	5.426912	0.518893
7571.234401	0.495954	456.640625	-6.347656
7571.236404	0.496326	5.459587	0.522842
7572.248386	0.488772	153.320312	-66.894531
7572.250388	0.495879	153.320312	-66.894531
7572.252387	0.494442	5.438867	0.542199
7573.308419	0.493855	444.531250	-1.464844
7573.310420	0.496102	5.457124	0.500353
7574.324444	0.406564	157.128906	-72.265625
7574.326444	0.498298	157.128906	-72.265625
7574.328444	0.496680	5.463478	0.541258
7575.382543	0.494928	447.460937	-1.660156
7575.384546	0.497129	5.468414	0.833618
7576.399158	0.463125	153.906250	-65.136719
7576.401159	0.497249	153.906250	-65.136719
7576.403159	0.495806	5.453871	0.536518
7577.465125	0.496868	458.984375	-6.542969
7577.467127	0.496048	5.456530	0.524109
7578.479114	0.378785	151.757812	-54.296875
7578.483116	0.496147	151.757812	-54.296875
7578.485120	0.495004	5.445045	0.560925
7579.533149	0.277831	445.312500	-2.343750
7579.535151	0.489822	445.312500	-2.343750
7579.537151	0.497548	445.312500	-2.343750
7579.539151	0.496260	5.458860	0.517936
7580.554132	0.284495	151.562500	-61.035156
7580.556134	0.490668	151.562500	-61.035156
7580.558134	0.496942	151.562500	-61.035156
7580.560135	0.495723	5.452958	0.531824
7581.616167	0.441597	454.687500	-5.957031
7581.618169	0.497019	454.687500	-5.957031
7581.620169	0.495281	5.448093	0.527363
7582.628215	0.468054	162.402344	-98.046875
7582.630217	0.496863	162.402344	-98.046875
7582.632217	0.495284	5.448120	0.562859
7583.692814	1.638628	454.980469	-7.714844
7583.694815	0.497026	454.980469	-7.714844
7583.696814	0.495533	5.450858	0.551481
7584.710838	0.403181	148.144531	-63.281250
7584.712839	0.497635	148.144531	-63.281250
7584.714839	0.495910	5.455006	0.535289
7585.762870	0.443579	445.410156	-5.078125
7585.764874	0.497269	445.410156	-5.078125
7585.766873	0.495566	5.451221	0.537382
7586.786874	0.497507	147.460937	-73.144531
7586.788878	0.495929	5.455218	0.526273
7587.842876	0.464007	456.933594	-11.230469
7587.844877	0.496985	456.933594	-11.230469
7587.846878	0.495458	5.450034	0.557670
7588.864880	0.491749	157.031250	-103.417969
7588.866882	0.497668	157.031250	-103.417969
7588.868882	0.496423	5.460651	0.758230
7589.914907	0.461691	457.128906	-13.183594
7589.916910	0.496884	457.128906	-13.183594
7589.918908	0.495293	5.448226	0.564423
7590.946991	0.496776	156.054687	-102.832031
7590.948994	0.495161	5.446772	0.511661
7591.988036	0.416613	454.980469	-13.867187
7591.990037	0.497449	454.980469	-13.867187
7591.994035	0.494671	5.441384	0.563817
7593.024552	0.477526	150.390625	-82.714844
7593.026554	0.496875	150.390625	-82.714844
7593.028554	0.495454	5.449989	0.573488
7594.064615	0.457290	453.808594	-14.941406
7594.066615	0.496963	453.808594	-14.941406
7594.068616	0.495370	5.449068	0.570580
7595.102684	0.434201	155.273437	-83.398437
7595.104685	0.497509	155.273437	-83.398437
7595.106686	0.495859	5.454447	0.530310
7596.136750	0.461787	440.234375	-9.667969
7596.138750	0.497156	440.234375	-9.667969
7596.140751	0.495643	5.452072	0.584674
7597.182754	0.497170	160.156250	-79.394531
7597.184755	0.496428	5.460704	0.984722
7598.213701	0.443970	445.019531	-10.351562
7598.215704	0.496644	445.019531	-10.351562
7598.217703	0.494973	5.444699	0.555010
7599.259801	0.398918	162.304687	-54.199219
7599.261803	0.498004	162.304687	-54.199219
7599.263804	0.496424	5.460669	0.553153
7600.292728	0.497736	436.523437	-5.371094
7600.294729	0.495951	5.455466	0.539359
7601.333331	0.479617	158.203125	-20.800781
7601.335334	0.496495	158.203125	-20.800781
7601.337333	0.495017	5.445186	0.612870
7602.371373	0.268258	438.769531	-2.734375
7602.373375	0.486712	438.769531	-2.734375
7602.375374	0.496233	438.769531	-2.734375
7602.377375	0.494837	5.443210	0.523481
7603.405410	0.480618	163.183594	-23.339844
7603.407412	0.496197	163.183594	-23.339844
7603.409413	0.494780	5.442581	0.658848
7604.455452	0.497098	440.820312	-1.171875
7604.457454	0.495434	5.449777	0.521389
7605.480014	0.478942	163.281250	-27.343750
7605.484012	0.495437	163.281250	-27.343750
7605.488011	0.493941	5.433346	0.630842
7606.530531	0.294969	448.242187	-3.613281
7606.532531	0.492995	448.242187	-3.613281
7606.534531	0.497562	448.242187	-3.613281
7606.536533	0.496284	5.459126	0.524672
7607.552607	0.314812	156.250000	-22.460937
7607.554607	0.494633	156.250000	-22.460937
7607.556608	0.496372	5.460093	0.588666
7608.612620	0.487407	451.953125	-5.664062
7608.614623	0.496621	451.953125	-5.664062
7608.616622	0.495263	5.447889	0.689925
7609.632679	0.496262	149.804687	-16.601562
7609.634682	0.494908	5.443990	0.821585
7610.686672	0.405051	445.019531	-3.222656
7610.688676	0.498027	445.019531	-3.222656
7610.690675	0.497952	5.477471	0.547345
7611.704753	0.367464	154.394531	-39.843750
7611.706753	0.497251	154.394531	-39.843750
7611.708753	0.496005	5.456051	0.578284
7612.764791	0.481321	455.468750	-8.398437
7612.766792	0.497051	455.468750	-8.398437
7612.768792	0.495628	5.451912	0.616317
7613.782792	0.261030	153.125000	-40.917969
7613.784795	0.484799	153.125000	-40.917969
7613.786793	0.496189	153.125000	-40.917969
7613.788795	0.494787	5.442652	0.572559
7614.844818	0.496383	454.687500	-7.617187
7614.846820	0.495003	5.445035	0.545084
7615.858881	0.483903	155.566406	-49.218750
7615.860882	0.495893	155.566406	-49.218750
7615.862880	0.494439	5.438832	0.575609
7616.919451	0.469445	450.878906	-6.152344
7616.921452	0.496656	450.878906	-6.152344
7616.925452	0.494216	5.436377	0.554870
7617.934041	0.255243	160.644531	-54.492187
7617.936043	0.483230	160.644531	-54.492187
7617.938043	0.496056	160.644531	-54.492187
7617.942041	0.493783	5.431618	0.594777
7618.998101	0.496108	451.855469	-6.054687
7619.000102	0.494762	451.855469	-6.054687
7619.002107	0.493943	5.433372	0.546916
7620.012646	0.392520	151.855469	-18.847656
7620.014649	0.498125	151.855469	-18.847656
7620.016650	0.496569	5.462255	0.585576
7621.072654	0.459676	454.785156	-6.347656
7621.074657	0.496482	454.785156	-6.347656
7621.076654	0.494907	5.443981	0.544491
7622.090735	0.435827	154.101562	-7.421875
7622.092736	0.497477	154.101562	-7.421875
7622.094738	0.495771	5.453481	0.589244
7623.148816	0.497916	455.566406	-6.250000
7623.150818	0.496711	5.463823	0.713405
7624.170835	0.497395	161.035156	-12.304687
7624.172837	0.496416	5.460580	0.606272
7625.221407	0.460788	451.269531	-4.199219
7625.223410	0.496604	451.269531	-4.199219
7625.225408	0.495052	5.445567	0.534202
7626.249472	0.460037	158.398437	3.906250
7626.251474	0.497097	158.398437	3.906250
7626.253475	0.495414	5.449555	0.591654
7627.295502	0.496961	445.214844	-3.710937
7627.297505	0.496271	5.458985	0.554056
7628.330046	0.387420	156.250000	7.128906
7628.332047	0.497385	156.250000	7.128906
7628.334047	0.495872	5.454589	0.592877
7629.366086	0.353874	441.210937	-5.175781
7629.368090	0.496578	441.210937	-5.175781
7629.370090	0.495830	5.454128	0.567118
7630.408119	0.292574	152.343750	2.050781
7630.410122	0.491288	152.343750	2.050781
7630.412121	0.495840	152.343750	2.050781
7630.414123	0.494442	5.438858	0.580017
7631.442131	0.335568	451.171875	-12.207031
7631.444129	0.495659	451.171875	-12.207031
7631.446131	0.495787	5.453659	0.582549
7632.486180	0.414662	162.109375	-45.605469
7632.488179	0.496995	162.109375	-45.605469
7632.490180	0.495164	5.446799	0.576860
7633.518261	0.332559	451.074219	-13.867187
7633.520264	0.495792	451.074219	-13.867187
7633.522263	0.496126	5.457381	0.589756
7634.562289	0.340387	147.656250	-22.656250
7634.564288	0.496355	147.656250	-22.656250
7634.566289	0.496235	5.458586	0.578834
7635.598377	0.494555	452.246094	-14.746094
7635.600380	0.496144	452.246094	-14.746094
7635.602379	0.494903	5.443936	0.603182
7636.638930	0.484838	144.531250	-22.363281
7636.640931	0.496411	144.531250	-22.363281
7636.642931	0.494921	5.444131	0.566182
7637.674952	0.371244	456.738281	-16.113281
7637.676955	0.497922	456.738281	-16.113281
7637.678955	0.496687	5.463558	0.604845
7638.713037	0.333877	148.046875	-40.625000
7638.715039	0.495971	148.046875	-40.625000
7638.717040	0.496299	5.459286	0.571610
7639.753040	0.274445	454.785156	-14.648437
7639.755041	0.488451	454.785156	-14.648437
7639.757042	0.496770	454.785156	-14.648437
7639.759042	0.495429	5.449724	0.608741
7640.789014	0.476656	153.613281	-57.031250
7640.791018	0.496511	153.613281	-57.031250
7640.793017	0.494940	5.444335	0.594313
7641.833048	0.445025	463.378906	-16.308594
7641.835051	0.496830	463.378906	-16.308594
7641.837049	0.495139	5.446525	0.598659
7642.865102	0.472313	144.921875	-27.929687
7642.867104	0.496845	144.921875	-27.929687
7642.869104	0.495381	5.449192	0.568025
7643.911156	0.474917	458.886719	-13.964844
7643.913159	0.496857	458.886719	-13.964844
7643.915157	0.495389	5.449280	0.604549
7644.939723	0.431924	143.847656	-25.488281
7644.941725	0.497083	143.847656	-25.488281
7644.943725	0.495333	5.448660	0.578922
7645.987729	0.363336	461.816406	-14.941406
7645.989730	0.497705	461.816406	-14.941406
7645.991732	0.496718	5.463903	0.600858
7647.015800	0.423817	143.457031	-22.265625
7647.017801	0.497331	143.457031	-22.265625
7647.019801	0.495570	5.451275	0.578294
7648.063808	0.269654	462.402344	-14.941406
7648.065811	0.487063	462.402344	-14.941406
7648.067810	0.496449	462.402344	-14.941406
7648.069809	0.495010	5.445115	0.603507
7649.091825	0.259417	154.394531	-52.343750
7649.093827	0.484631	154.394531	-52.343750
7649.095829	0.496452	154.394531	-52.343750
7649.097827	0.495055	5.445602	0.590161
7650.141887	0.453696	463.867187	-15.625000
7650.143890	0.497566	463.867187	-15.625000
7650.147886	0.494888	5.443768	0.606542
7651.169935	2.370254	152.734375	-47.753906
7651.171937	0.496834	152.734375	-47.753906
7651.173938	0.495177	5.446949	0.580609
7652.217956	0.318527	464.257812	-15.820312
7652.219958	0.494798	464.257812	-15.820312
7652.221959	0.496187	5.458054	0.604970
7653.246020	0.386867	151.757812	-45.312500
7653.248022	0.497524	151.757812	-45.312500
7653.250022	0.495995	5.455945	0.587866
7654.294605	0.897320	466.796875	-17.578125
7654.296605	0.497469	466.796875	-17.578125
7654.298607	0.495800	5.453800	0.613342
7655.324684	0.380768	146.191406	-30.273437
7655.326684	0.497251	146.191406	-30.273437
7655.328683	0.495751	5.453259	0.583122
7656.372755	0.497273	462.011719	-16.601562
7656.374758	0.495608	5.451691	0.609290
7657.401341	0.379221	146.875000	-30.957031
7657.403342	0.497658	146.875000	-30.957031
7657.405343	0.496236	5.458595	0.585911
7658.449397	0.496781	461.523437	-16.796875
7658.451401	0.495324	5.448563	0.640325
7659.479945	0.363344	143.652344	-19.238281
7659.481947	0.497382	143.652344	-19.238281
7659.483947	0.496397	5.460367	0.579879
7660.520058	0.240026	464.160156	-18.945312
7660.522058	0.479561	464.160156	-18.945312
7660.524058	0.496949	464.160156	-18.945312
7660.528057	0.494641	5.441048	0.622071
7661.558101	0.355653	146.289062	-21.679687
7661.560103	0.496843	146.289062	-21.679687
7661.562102	0.496101	5.457115	0.585639
7662.600188	0.496376	460.449219	-18.164062
7662.602189	0.495034	5.445372	0.892483
7663.636762	0.461291	151.171875	-29.003906
7663.638764	0.496781	151.171875	-29.003906
7663.640765	0.495228	5.447508	0.585472
7664.671331	0.318171	459.960937	-17.871094
7664.673333	0.494562	459.960937	-17.871094
7664.677331	0.494700	5.441703	0.622106
7665.715358	0.496798	153.515625	-21.093750
7665.717359	0.497142	5.468565	0.955394
7666.750307	0.497846	456.542969	-15.722656
7666.752307	0.496207	5.458276	0.611282
7667.792880	1.629967	151.074219	6.445312
7667.794882	0.497084	151.074219	6.445312
7667.796883	0.495661	5.452267	0.600663
7668.826955	0.497269	455.078125	-13.085937
7668.828955	0.495462	5.450087	0.600095
7669.869017	0.473753	152.246094	22.949219
7669.873018	0.494708	152.246094	22.949219
7669.875018	0.493887	5.432761	0.606547
7670.907092	0.496117	453.808594	-9.179687
7670.909094	0.494915	5.444069	0.596197
7671.943700	0.476627	157.031250	26.367187
7671.945702	0.496723	157.031250	26.367187
7671.947700	0.495243	5.447677	0.643072
7672.984238	0.484468	455.761719	-7.324219
7672.986241	0.496583	455.761719	-7.324219
7672.988241	0.495199	5.447189	0.590698
7674.018744	0.497548	148.535156	60.156250
7674.020744	0.495874	5.454616	0.628970
7675.062772	0.436294	464.062500	-9.472656
7675.064774	0.497326	464.062500	-9.472656
7675.066775	0.495650	5.452152	0.588975
7676.090773	0.365094	151.464844	47.460937
7676.092772	0.497347	151.464844	47.460937
7676.094773	0.496236	5.458595	0.636670
7677.142787	0.344043	466.601562	-9.863281
7677.144789	0.496923	466.601562	-9.863281
7677.146790	0.496685	5.463531	0.579392
7678.164820	0.351657	147.070312	50.585937
7678.166822	0.497942	147.070312	50.585937
7678.168823	0.497495	5.472446	0.647533
7679.222833	0.497498	464.941406	-9.667969
7679.224833	0.495866	5.454527	0.589273
7680.241365	0.455787	157.714844	8.984375
7680.243366	0.497004	157.714844	8.984375
7680.245366	0.495382	5.449201	0.632082
7681.298320	0.363278	463.671875	-9.667969
7681.300323	0.497083	463.671875	-9.667969
7681.302322	0.496016	5.456175	0.591858
7682.318372	0.440905	149.218750	25.781250
7682.320372	0.497216	149.218750	25.781250
7682.322370	0.495504	5.450539	0.631090
7683.378427	0.496670	466.015625	-11.230469
7683.382426	0.494123	466.015625	-11.230469
7683.384429	0.493564	5.429199	0.586551
7684.395398	0.363081	149.316406	22.363281
7684.397399	0.497833	149.316406	22.363281
7684.399401	0.496843	5.465277	0.627291
7685.453416	0.495606	466.406250	-10.839844
7685.455418	0.496362	5.459978	0.925580
7686.472378	0.403062	149.121094	24.804687
7686.474381	0.497597	149.121094	24.804687
7686.478377	0.494728	5.442004	0.631716
7687.532425	0.496449	466.796875	-11.132812
7687.534428	0.494882	5.443697	0.587351
7688.550989	0.497224	150.488281	29.394531
7688.552990	0.495514	5.450654	0.636383
7689.609012	0.496460	465.722656	-10.253906
7689.611021	0.495073	5.445807	0.791793
7690.627948	0.490575	157.617187	20.019531
7690.629950	0.496063	157.617187	20.019531
7690.631952	0.494786	5.442643	0.638238
7691.680894	0.448660	463.671875	-8.691406
7691.682896	0.496595	463.671875	-8.691406
7691.684895	0.494923	5.444149	0.592338
7692.703895	0.326615	156.347656	37.207031
7692.705897	0.495752	156.347656	37.207031
7692.709896	0.495393	5.449325	0.647795
7693.756466	0.442700	466.601562	-10.644531
7693.758467	0.497199	466.601562	-10.644531
7693.760469	0.495503	5.450530	0.584364
7694.784565	0.312066	150.292969	63.671875
7694.786567	0.493662	150.292969	63.671875
7694.788567	0.495674	5.452409	0.643581
7695.830600	0.389705	462.500000	-9.570312
7695.832602	0.497733	462.500000	-9.570312
7695.834603	0.496099	5.457088	0.591459
7696.864617	0.466822	156.835937	44.824219
7696.866619	0.496374	156.835937	44.824219
7696.868618	0.494867	5.443538	0.646314
7697.903164	0.441541	457.519531	-9.082031
7697.905165	0.496996	457.519531	-9.082031
7697.907166	0.495316	5.448474	0.614676
7698.943731	0.457273	155.664062	39.062500
7698.945734	0.496285	155.664062	39.062500
7698.947732	0.494681	5.441490	0.634835
7699.982259	0.496901	459.765625	-13.378906
7699.984261	0.495437	5.449812	0.602698
7701.024851	0.497712	150.390625	38.085937
7701.026852	0.496377	5.460145	0.672496
7702.055404	0.434701	463.183594	-17.871094
7702.057406	0.497040	463.183594	-17.871094
7702.059404	0.495264	5.447907	0.619381
7703.101466	0.497310	151.171875	19.335937
7703.103469	0.495624	5.451869	0.614148
7704.132024	0.367991	462.304687	-18.945312
7704.134027	0.497528	462.304687	-18.945312
7704.136031	0.496417	5.460589	0.641891
7705.176049	1.961390	146.386719	21.093750
7705.178051	0.497285	146.386719	21.093750
7705.180050	0.495559	5.451150	0.606380
7706.210092	0.461774	467.968750	-21.875000
7706.212093	0.496510	467.968750	-21.875000
7706.214094	0.494896	5.443857	0.632804
7707.252120	0.469219	144.042969	21.484375
7707.254122	0.471831	144.042969	21.484375
7707.256124	0.495344	5.448784	0.607674
7708.290190	0.497543	468.945312	-21.582031
7708.292193	0.496178	5.457957	0.721899
7709.328757	0.491290	139.843750	30.566406
7709.330759	0.497189	139.843750	30.566406
7709.332759	0.495905	5.454952	0.803023
7710.366828	0.496452	472.949219	-23.535156
7710.368829	0.497471	5.472181	0.949065
7711.404856	0.463188	141.113281	25.000000
7711.406860	0.497856	141.113281	25.000000
7711.408858	0.496335	5.459685	0.601080
7712.442901	0.476483	472.656250	-22.656250
7712.444903	0.496199	472.656250	-22.656250
7712.446903	0.494724	5.441969	0.669072
7713.480948	0.486321	142.968750	17.578125
7713.482950	0.496225	142.968750	17.578125
7713.484955	0.494830	5.443130	0.611759
7714.521078	0.495817	472.167969	-21.972656
7714.523081	0.498630	5.484925	0.872070
7715.557669	0.488127	143.066406	19.335937
7715.559671	0.496247	143.066406	19.335937
7715.561673	0.494861	5.443476	0.612991
7716.599746	0.497282	471.875000	-21.679687
7716.603748	0.494556	5.440117	0.634778
7717.632311	0.271895	146.093750	11.816406
7717.636310	0.496705	146.093750	11.816406
7717.640313	0.494474	146.093750	11.816406
7717.642313	0.493899	5.432894	0.618061
7718.674836	0.469182	474.218750	-22.851562
7718.676837	0.497073	474.218750	-22.851562
7718.678839	0.495544	5.450982	0.633795
7719.710824	0.393252	139.160156	34.960937
7719.712827	0.497414	139.160156	34.960937
7719.714828	0.495762	5.453384	0.607585
7720.750890	0.462336	472.167969	-22.558594
7720.752890	0.496471	472.167969	-22.558594
7720.754890	0.494857	5.443431	0.636020
7721.789429	0.494922	145.898437	15.722656
7721.791433	0.497416	145.898437	15.722656
7721.793431	0.496163	5.457797	0.613113
7722.826017	0.415081	472.558594	-23.339844
7722.828018	0.497176	472.558594	-23.339844
7722.830018	0.495337	5.448705	0.642124
7723.866055	0.433005	140.625000	37.402344
7723.868058	0.497401	140.625000	37.402344
7723.870057	0.495633	5.451966	0.610773
7724.902071	0.332365	470.996094	-22.851562
7724.904072	0.495710	470.996094	-22.851562
7724.906073	0.495989	5.455883	0.642675
7725.946117	0.498130	137.109375	59.863281
7725.948119	0.496434	5.460775	0.610176
7726.978115	0.444420	469.531250	-21.777344
7726.980118	0.496690	469.531250	-21.777344
7726.982118	0.494963	5.444592	0.638940
7728.022158	0.450855	148.339844	34.375000
7728.026158	0.495378	148.339844	34.375000
7728.028162	0.494416	5.438575	0.612528
7729.055119	0.491972	470.312500	-20.800781
7729.057119	0.496886	470.312500	-20.800781
7729.059121	0.496833	5.465162	0.644713
7730.099190	0.378310	150.878906	43.847656
7730.101188	0.498126	150.878906	43.847656
7730.103188	0.496685	5.463540	0.620361
7731.130114	0.343457	469.335937	-18.164062
7731.132117	0.496507	469.335937	-18.164062
7731.134117	0.496259	5.458852	0.635007
7732.176170	0.497481	140.625000	97.070312
7732.178172	0.496760	5.464355	0.637119
7733.210200	0.444322	466.015625	-13.671875
7733.212200	0.497381	466.015625	-13.671875
7733.214201	0.495725	5.452976	0.630972
7734.250234	0.486821	143.066406	105.664062
7734.252236	0.496603	143.066406	105.664062
7734.254235	0.495232	5.447552	0.769746
7735.290281	0.497624	470.605469	-12.500000
7735.292282	0.496294	5.459233	0.613631
7736.326318	0.497196	156.347656	70.703125
7736.328319	0.495657	5.452223	0.645885
7737.369306	0.405360	472.265625	-11.132812
7737.371307	0.498078	472.265625	-11.132812
7737.373308	0.496482	5.461307	0.610885
7738.397846	0.325706	148.144531	95.605469
7738.399847	0.495750	148.144531	95.605469
7738.401848	0.496677	5.463451	0.657786
7739.449871	0.497001	476.757812	-12.988281
7739.453872	0.494307	5.437378	0.605601
7740.473917	0.442434	150.683594	80.468750
7740.475920	0.497163	150.683594	80.468750
7740.477921	0.495487	5.450353	0.662945
7741.528453	0.497709	476.367187	-12.792969
7741.530455	0.496570	5.462273	0.605171
7742.553012	0.495970	138.476562	111.523437
7742.555014	0.494871	5.443582	0.651580
7743.603060	0.280773	480.078125	-15.039062
7743.607061	0.496194	480.078125	-15.039062
7743.611061	0.493962	480.078125	-15.039062
7743.613061	0.493476	5.428241	0.615506
7744.625116	0.434694	142.089844	92.968750
7744.627117	0.497057	142.089844	92.968750
7744.631117	0.494312	5.437431	0.664638
7745.681125	1.998403	485.742187	-16.406250
7745.683127	0.497013	485.742187	-16.406250
7745.685127	0.497090	5.467989	0.624761
7746.703174	0.489429	137.695312	107.714844
7746.705178	0.496173	137.695312	107.714844
7746.707177	0.494824	5.443059	0.663416
7747.759245	0.451233	483.300781	-16.894531
7747.761249	0.497684	483.300781	-16.894531
7747.765246	0.495175	5.446923	0.614193
7748.779275	0.489863	143.554687	87.500000
7748.781277	0.499203	143.554687	87.500000
7748.783275	0.498041	5.478446	0.804732
7749.835359	0.392053	482.031250	-15.625000
7749.837361	0.497130	482.031250	-15.625000
7749.839360	0.495451	5.449963	0.615188
7750.855397	0.339164	144.433594	89.648437
7750.857399	0.496122	144.433594	89.648437
7750.859399	0.496068	5.456751	0.657053
7751.911420	0.301554	480.371094	-15.429687
7751.913421	0.492762	480.371094	-15.429687
7751.915423	0.496101	480.371094	-15.429687
7751.917422	0.494752	5.442270	0.614996
7752.935473	0.496484	150.000000	80.468750
7752.937475	0.494807	150.000000	80.468750
7752.941475	0.493199	5.425184	0.654914
7753.988406	0.488910	479.785156	-15.039062
7753.990408	0.496243	479.785156	-15.039062
7753.992409	0.494795	5.442740	0.614541
7755.012431	0.464730	142.773437	114.355469
7755.014431	0.497344	142.773437	114.355469
7755.016432	0.495848	5.454332	0.651575
7756.062478	0.342297	478.710937	-14.453125
7756.064481	0.496143	478.710937	-14.453125
7756.066480	0.495891	5.454802	0.611662
7757.090538	0.407868	142.285156	123.925781
7757.092540	0.498304	142.285156	123.925781
7757.094540	0.496718	5.463903	0.669212
7758.140550	0.483460	475.488281	-13.964844
7758.142552	0.499027	475.488281	-13.964844
7758.144553	0.497830	5.476133	0.682064
7759.170562	0.437236	153.710937	88.378906
7759.172565	0.497273	153.710937	88.378906
7759.174564	0.495495	5.450441	0.663059
7760.211444	0.475329	471.191406	-13.476562
7760.213447	0.496759	471.191406	-13.476562
7760.215448	0.495305	5.448359	0.625730
7761.251464	0.496283	150.195312	92.285156
7761.253466	0.496781	5.464594	0.973637
7762.286459	0.361466	471.972656	-16.210937
7762.288462	0.497840	471.972656	-16.210937
7762.290461	0.496916	5.466074	0.620799
7763.331400	0.497999	147.656250	88.476562
7763.333401	0.497944	5.477383	0.632726
7764.363946	0.497698	473.730469	-19.531250
7764.365948	0.496008	5.456087	0.634028
7765.408505	0.497538	136.621094	112.988281
7765.410511	0.497210	5.469309	1.002829
7766.438508	0.495253	475.488281	-23.339844
7766.440506	0.495991	5.455901	0.643003
7767.484531	0.481267	147.070312	63.085937
7767.486532	0.496456	147.070312	63.085937
7767.488532	0.495023	5.445248	0.630708
7768.517076	0.497119	475.781250	-23.046875
7768.519079	0.495606	5.451664	0.658968
7769.561646	0.441862	137.011719	90.234375
7769.565647	0.495479	137.011719	90.234375
7769.567647	0.494486	5.439346	0.615724
7770.593679	0.491403	479.101562	-24.902344
7770.595679	0.496413	479.101562	-24.902344
7770.597680	0.496366	5.460031	0.846388
7771.638615	0.490062	141.503906	69.921875
7771.640616	0.497330	141.503906	69.921875
7771.642613	0.496050	5.456548	0.794446
7772.669127	0.403937	478.125000	-24.707031
7772.671127	0.497518	478.125000	-24.707031
7772.673128	0.495755	5.453304	0.648932
7773.713170	0.345055	136.523437	83.496094
7773.715172	0.496502	136.523437	83.496094
7773.717172	0.496216	5.458373	0.623450
7774.745228	0.243566	481.347656	-26.660156
7774.747228	0.480596	481.347656	-26.660156
7774.749230	0.496988	481.347656	-26.660156
7774.751229	0.496921	5.466128	0.660158
7775.789236	0.249327	145.117187	54.980469
7775.793238	0.496134	145.117187	54.980469
7775.795238	0.494667	145.117187	54.980469
7775.797237	0.493866	5.432522	0.627059
7776.825767	0.497428	481.542969	-25.781250
7776.827769	0.496045	5.456494	0.646866
7777.868330	0.494649	138.964844	75.585937
7777.870333	0.496323	5.459552	0.624487
7778.904364	0.497261	481.738281	-27.050781
7778.906366	0.494909	5.443998	0.654148
7779.946381	0.497722	142.285156	69.726562
7779.948382	0.496377	5.460145	0.617401
7780.978913	0.408568	481.250000	-26.562500
7780.980917	0.500344	481.250000	-26.562500
7780.982914	0.498764	5.486405	0.617824
7782.018948	0.425610	133.105469	101.171875
7782.020948	0.497955	133.105469	101.171875
7782.022949	0.496319	5.459507	0.642784
7783.057013	0.496277	481.640625	-26.757812
7783.059013	0.494819	5.443006	0.668382
7784.097009	0.409194	140.234375	83.398437
7784.099012	0.498050	140.234375	83.398437
7784.101013	0.496405	5.460456	0.621071
7785.133046	0.436956	481.445312	-25.390625
7785.135048	0.496911	481.445312	-25.390625
7785.137047	0.495152	5.446675	0.646567
7786.175098	0.495363	140.429687	92.089844
7786.177100	0.495885	140.429687	92.089844
7786.179100	0.494602	5.440622	0.628687
7787.209169	0.372644	478.906250	-22.851562
7787.211169	0.497661	478.906250	-22.851562
7787.213171	0.496334	5.459676	0.645548
7788.251216	1.770708	140.429687	107.226562
7788.253219	0.496140	140.429687	107.226562
7788.255220	0.494665	5.441313	0.680799
7789.287269	0.490256	480.468750	-22.460937
7789.289271	0.496187	480.468750	-22.460937
7789.291270	0.494854	5.443396	0.645262
7790.327278	0.436891	142.578125	113.964844
7790.329281	0.499067	142.578125	113.964844
7790.331283	0.497610	5.473714	0.633376
7791.363315	0.340795	480.664062	-20.214844
7791.367314	0.496478	480.664062	-20.214844
7791.369317	0.495363	5.448997	0.635531
7792.401413	0.297123	142.968750	126.660156
7792.403414	0.493026	142.968750	126.660156
7792.405416	0.493745	142.968750	126.660156
7792.407416	0.495027	5.445292	0.651684
7793.443431	0.480242	480.078125	-17.480469
7793.447430	0.494922	480.078125	-17.480469
7793.449432	0.494096	5.435057	0.685730
7794.479464	0.490216	140.917969	142.285156
7794.481465	0.496515	140.917969	142.285156
7794.483467	0.495186	5.447047	0.654078
7795.521539	0.438002	483.593750	-15.722656
7795.523539	0.497101	483.593750	-15.722656
7795.525541	0.495391	5.449298	0.616702
7796.554499	0.497597	137.402344	159.667969
7796.556502	0.495944	5.455387	0.654702
7797.600517	0.343723	487.402344	-17.089844
7797.602519	0.496922	487.402344	-17.089844
7797.606518	0.495501	5.450512	0.614272
7798.626563	0.459766	144.628906	131.152344
7798.630564	0.495281	144.628906	131.152344
7798.632566	0.494359	5.437945	0.658069
7799.680567	0.308604	488.281250	-17.382812
7799.682566	0.494088	488.281250	-17.382812
7799.684568	0.496636	5.462999	0.615402
7800.702604	0.481980	146.777344	116.699219
7800.704606	0.496200	146.777344	116.699219
7800.708604	0.493941	5.433346	0.733325
7801.759135	0.493199	488.085937	-16.992187
7801.761137	0.497780	488.085937	-16.992187
7801.763137	0.496545	5.461998	0.622076
7802.780106	0.497389	134.179687	154.589844
7802.782110	0.495680	5.452480	0.652231
7803.838129	0.498380	490.527344	-19.433594
7803.840129	0.496967	5.466633	0.611105
7804.854115	0.357837	137.695312	138.867187
7804.856116	0.497300	137.695312	138.867187
7804.858119	0.496557	5.462122	0.663332
7805.914210	0.496445	491.210937	-20.117187
7805.916213	0.497465	5.472110	0.934567
7806.932285	0.488730	132.714844	156.347656
7806.934287	0.495881	132.714844	156.347656
7806.936286	0.494574	5.440312	0.660101
7807.992349	0.497337	491.308594	-18.457031
7807.994351	0.495699	5.452693	0.614735
7809.012890	0.495790	147.265625	108.691406
7809.014892	0.494658	5.441243	0.653011
7810.068916	0.496888	490.527344	-17.773437
7810.070916	0.495093	5.446019	0.610611
7811.085877	0.386506	148.535156	112.207031
7811.087878	0.497416	148.535156	112.207031
7811.089879	0.495869	5.454554	0.655243
7812.142870	0.488402	491.406250	-18.066406
7812.144872	0.496930	491.406250	-18.066406
7812.146874	0.495593	5.451522	0.772561
7813.164921	0.466915	139.746094	151.367187
7813.166923	0.496898	139.746094	151.367187
7813.168922	0.495313	5.448439	0.648075
7814.216948	0.260102	490.039062	-17.675781
7814.218951	0.484747	490.039062	-17.675781
7814.220949	0.496450	490.039062	-17.675781
7814.224950	0.494119	5.435305	0.621321
7815.243030	0.487617	136.035156	170.410156
7815.245032	0.496262	136.035156	170.410156
7815.247030	0.494864	5.443502	0.666067
7816.295089	0.496353	487.207031	-16.406250
7816.297090	0.496296	5.459250	0.628597
7817.321073	0.393796	141.699219	151.367187
7817.323073	0.497945	141.699219	151.367187
7817.325073	0.496374	5.460119	0.650680
7818.367096	0.321043	486.523437	-18.066406
7818.369095	0.495313	486.523437	-18.066406
7818.371096	0.496584	5.462423	0.625331
7819.403112	0.496488	143.554687	141.308594
7819.405113	0.494961	5.444574	0.640126
7820.449632	0.494393	485.351562	-18.847656
7820.451635	0.493807	5.431875	0.620124
7821.480182	0.496718	146.972656	121.875000
7821.482183	0.496169	5.457860	0.644338
7822.518759	0.376756	485.546875	-21.386719
7822.520763	0.498082	485.546875	-21.386719
7822.522761	0.496796	5.464754	0.631184
7823.556831	0.406993	134.863281	151.464844
7823.558834	0.497925	134.863281	151.464844
7823.560834	0.496174	5.457912	0.630397
7824.596836	0.497026	485.351562	-23.828125
7824.598839	0.495873	5.454598	0.638946
7825.633760	0.375844	145.605469	101.855469
7825.635764	0.497648	145.605469	101.855469
7825.639763	0.495108	5.446187	0.630074
7826.671813	0.405407	486.035156	-27.050781
7826.673815	0.497958	486.035156	-27.050781
7826.675815	0.496254	5.458798	0.645022
7827.713822	0.497517	138.281250	116.113281
7827.715825	0.495833	138.281250	116.113281
7827.717823	0.494735	5.442084	0.620254
7828.747829	0.228641	486.621094	-28.222656
7828.749831	0.476011	486.621094	-28.222656
7828.751831	0.497063	486.621094	-28.222656
7828.753831	0.495633	5.451966	0.652257
7829.787891	0.407896	129.882812	141.503906
7829.789892	0.498394	129.882812	141.503906
7829.791893	0.496793	5.464727	0.620732
7830.825936	0.431922	487.304687	-29.199219
7830.827939	0.497038	487.304687	-29.199219
7830.829939	0.495359	5.448953	0.649765
7831.863959	0.325653	137.304687	110.351562
7831.865961	0.495763	137.304687	110.351562
7831.867958	0.496619	5.462804	0.624897
7832.902002	0.279250	487.207031	-29.882812
7832.904004	0.488770	487.207031	-29.882812
7832.906003	0.495749	487.207031	-29.882812
7832.908005	0.494414	5.438557	0.653662
7833.942014	0.474850	131.347656	130.957031
7833.944015	0.496833	131.347656	130.957031
7833.950013	0.493854	5.432389	0.626325
7834.980066	0.406576	488.378906	-29.785156
7834.982069	0.497761	488.378906	-29.785156
7834.986066	0.494949	5.444442	0.647957
7836.018095	0.368011	136.425781	113.671875
7836.020098	0.497842	136.425781	113.671875
7836.022098	0.496705	5.463753	0.620204
7837.058131	0.494890	488.378906	-29.199219
7837.060134	0.495905	488.378906	-29.199219
7837.062133	0.494584	5.440427	0.649694
7838.096140	0.486692	131.738281	135.839844
7838.100140	0.495152	131.738281	135.839844
7838.102142	0.494303	5.437334	0.629438
7839.136208	0.497278	488.671875	-28.417969
7839.140207	0.494843	5.443272	0.656288
7840.174785	0.496512	134.082031	133.691406
7840.176787	0.494817	134.082031	133.691406
7840.178786	0.493962	5.433585	0.620921
7841.210853	0.435369	487.597656	-28.027344
7841.212857	0.497369	487.597656	-28.027344
7841.214856	0.495616	5.451779	0.634763
7842.250894	0.449807	134.082031	142.578125
7842.254894	0.494762	134.082031	142.578125
7842.256895	0.493870	5.432566	0.616699
7843.286935	0.469140	487.500000	-26.367187
7843.288937	0.497226	487.500000	-26.367187
7843.290939	0.495811	5.453925	0.637837
7844.327494	0.443522	140.332031	132.226562
7844.329497	0.497135	140.332031	132.226562
7844.331497	0.495422	5.449644	0.621251
7845.366054	0.496705	488.085937	-25.097656
7845.368056	0.495901	5.454908	0.635249
7846.404098	0.475123	140.917969	142.382812
7846.408098	0.494842	140.917969	142.382812
7846.410100	0.493957	5.433532	0.636561
7847.440626	0.338691	488.476562	-22.656250
7847.442626	0.496252	488.476562	-22.656250
7847.444627	0.496268	5.458950	0.634978
7848.478676	0.294768	136.425781	173.242187
7848.480674	0.492825	136.425781	173.242187
7848.482676	0.497480	136.425781	173.242187
7848.484674	0.496262	5.458878	0.638617
7849.520703	0.478463	489.160156	-20.410156
7849.522704	0.496246	489.160156	-20.410156
7849.524703	0.494753	5.442279	0.631537
7850.555246	0.466527	143.164062	157.714844
7850.557247	0.497020	143.164062	157.714844
7850.559249	0.495510	5.450610	0.635677
7851.599808	0.470986	491.015625	-19.628906
7851.601808	0.496119	491.015625	-19.628906
7851.603809	0.494592	5.440516	0.609112
7852.629917	0.469553	146.679687	152.343750
7852.631917	0.496813	146.679687	152.343750
7852.633918	0.495306	5.448368	0.634724
7853.677945	0.423140	493.750000	-19.238281
7853.679947	0.497083	493.750000	-19.238281
7853.681947	0.495238	5.447623	0.609524
7854.705968	0.496966	135.351562	191.894531
7854.707970	0.496080	5.456884	0.668188
7855.756025	0.409592	495.898437	-18.164062
7855.758028	0.496938	495.898437	-18.164062
7855.760028	0.495041	5.445452	0.614013
7856.780031	0.408899	134.179687	192.285156
7856.782032	0.497365	134.179687	192.285156
7856.784033	0.495618	5.451797	0.662448
7857.836044	0.494011	497.265625	-20.703125
7857.838047	0.496016	5.456175	0.614489
7858.858012	0.497647	143.554687	154.199219
7858.860015	0.496083	5.456911	0.642642
7859.914561	0.497030	498.046875	-19.531250
7859.916564	0.496014	5.456158	0.610108
7860.932551	0.371781	141.894531	155.761719
7860.934552	0.497162	141.894531	155.761719
7860.936553	0.495793	5.453721	0.651488
7861.989097	0.408831	498.730469	-21.191406
7861.991100	0.497574	498.730469	-21.191406
7861.993098	0.495824	5.454066	0.613901
7863.013163	0.496487	139.648437	162.207031
7863.015165	0.495136	5.446497	0.817193
7864.065730	0.331476	498.632812	-21.289062
7864.067730	0.495544	498.632812	-21.289062
7864.069731	0.495954	5.455493	0.616326
7865.087752	0.487498	142.871094	153.320312
7865.089753	0.496308	142.871094	153.320312
7865.091754	0.494885	5.443733	0.651514
7866.142288	0.315762	498.632812	-21.093750
7866.144288	0.494191	498.632812	-21.093750
7866.146287	0.495840	5.454244	0.614688
7867.164328	0.400981	146.093750	148.242187
7867.166330	0.498101	146.093750	148.242187
7867.168336	0.496478	5.461262	0.642671
7868.220321	0.470264	497.851562	-20.117187
7868.222323	0.496338	497.851562	-20.117187
7868.224324	0.494705	5.441756	0.617423
7869.242877	0.476306	144.921875	157.226562
7869.244878	0.497133	144.921875	157.226562
7869.246878	0.495628	5.451912	0.656678
7870.295865	0.489451	499.609375	-20.605469
7870.297871	0.496641	499.609375	-20.605469
7870.299873	0.495267	5.447942	0.781197
7871.319893	0.356320	141.699219	175.683594
7871.321897	0.497009	141.699219	175.683594
7871.323895	0.496202	5.458222	0.649903
7872.373940	0.497488	504.199219	-19.531250
7872.375944	0.495732	5.453056	0.626410
7873.400886	0.496971	131.347656	215.234375
7873.402886	0.495590	5.451487	0.708423
7874.446863	0.438697	500.585937	-21.093750
7874.448865	0.497514	500.585937	-21.093750
7874.450865	0.495883	5.454713	0.620890
7875.478875	0.497654	146.484375	156.933594
7875.480877	0.495868	5.454545	0.645300
7876.521788	0.416511	498.242187	-22.851562
7876.523788	0.497539	498.242187	-22.851562
7876.525789	0.495886	5.454749	0.642497
