time (s)	coil I (A)	last det (V)	int current (uC)
65502.777452	0.834186	-451.269531	-6.445312
65502.781453	1.082931	-451.269531	-6.445312
65502.783454	1.080067	11.880734	0.099712
65503.845455	0.557102	-136.523437	16.894531
65503.847456	1.016495	-136.523437	16.894531
65503.849455	1.084428	-136.523437	16.894531
65503.851456	1.080632	11.886955	0.104692
65504.877492	0.515410	-447.265625	-7.324219
65504.879494	0.993403	-447.265625	-7.324219
65504.881494	1.083786	-447.265625	-7.324219
65504.883495	1.079852	11.878377	0.090140
65505.925531	1.085976	-134.179687	7.519531
65505.927530	1.081369	11.895056	0.109406
65506.963497	0.814397	-442.968750	-9.472656
65506.965503	1.085537	-442.968750	-9.472656
65506.967505	1.081816	11.899974	0.097047
65508.008057	0.836530	-133.105469	-25.292969
65508.010059	1.086201	-133.105469	-25.292969
65508.012058	1.081854	11.900392	0.098477
65509.052143	0.735262	-444.628906	-12.890625
65509.054143	1.077066	-444.628906	-12.890625
65509.056146	1.082149	-444.628906	-12.890625
65509.058145	1.079206	11.871270	0.105058
65510.096205	0.626380	-133.886719	-53.613281
65510.098206	1.046335	-133.886719	-53.613281
65510.100204	1.082527	-133.886719	-53.613281
65510.102203	1.079148	11.870631	0.100724
65511.138286	1.011528	-451.464844	-16.210937
65511.140287	1.083730	-451.464844	-16.210937
65511.142287	1.079944	11.879379	0.107765
65512.189275	0.630686	-139.062500	-89.257812
65512.191277	1.048385	-139.062500	-89.257812
65512.193276	1.083080	-139.062500	-89.257812
65512.195277	1.079665	11.876312	0.086532
65513.218210	0.846775	-444.140625	-19.628906
65513.220212	1.085456	-444.140625	-19.628906
65513.222212	1.080891	11.889801	0.110616
65514.286286	0.594030	-140.820312	-66.406250
65514.288294	1.033183	-140.820312	-66.406250
65514.290297	1.082903	-140.820312	-66.406250
65514.292300	1.079322	11.872537	0.086483
65515.286276	0.741256	-452.636719	-17.187500
65515.288278	1.077251	-452.636719	-17.187500
65515.290278	1.081037	-452.636719	-17.187500
65515.292278	1.078144	11.859589	0.116673
65516.384329	0.824871	-143.261719	-19.531250
65516.386330	1.085059	-143.261719	-19.531250
65516.388330	1.080956	11.890518	0.088901
65517.364337	1.027118	-455.957031	-13.281250
65517.366338	1.082598	-455.957031	-13.281250
65517.368339	1.078965	11.868610	0.614948
65518.473251	0.816214	-145.898437	15.917969
65518.475253	1.084937	-145.898437	15.917969
65518.477254	1.081071	11.891777	0.094071
65519.459344	0.540539	-441.601562	-10.058594
65519.461345	1.006900	-441.601562	-10.058594
65519.463346	1.082889	-441.601562	-10.058594
65519.465346	1.079119	11.870313	0.102229
65520.545339	0.685214	-141.406250	41.992187
65520.547336	1.065214	-141.406250	41.992187
65520.549337	1.081652	-141.406250	41.992187
65520.551337	1.078568	11.864243	0.107368
65521.561400	0.751996	-444.042969	-8.007812
65521.563401	1.079015	-444.042969	-8.007812
65521.565401	1.081233	-444.042969	-8.007812
65521.567403	1.078339	11.861734	0.092444
65522.619490	1.024462	-139.257812	10.351562
65522.621493	1.082411	-139.257812	10.351562
65522.623493	1.078867	11.867539	0.110554
65523.658063	1.082778	-437.011719	-10.253906
65523.662063	1.077385	-437.011719	-10.253906
65523.664064	1.075733	11.833064	0.098038
65524.700156	1.010640	-136.914062	-16.406250
65524.704155	1.080118	-136.914062	-16.406250
65524.706158	1.077993	11.857924	0.512434
65525.746641	0.521284	-437.695312	-13.867187
65525.748643	0.996677	-437.695312	-13.867187
65525.750643	1.084014	-437.695312	-13.867187
65525.754641	1.077871	11.856577	0.100164
65526.792690	0.920925	-132.519531	-14.453125
65526.794693	1.085354	-132.519531	-14.453125
65526.796692	1.080749	11.888241	0.098407
65527.827161	0.459249	-444.921875	-17.187500
65527.829162	0.958039	-444.921875	-17.187500
65527.831164	1.084413	-444.921875	-17.187500
65527.833163	1.080241	11.882649	0.109440
65528.883741	0.407828	-138.964844	-62.304687
65528.885744	0.921017	-138.964844	-62.304687
65528.887742	1.084437	-138.964844	-62.304687
65528.889745	1.079922	11.879139	0.090548
65529.909739	0.918305	-436.035156	-20.996094
65529.913739	1.080747	-436.035156	-20.996094
65529.915740	1.078225	11.860476	0.111959
65530.977782	0.669427	-138.769531	-38.867187
65530.979786	1.061133	-138.769531	-38.867187
65530.981783	1.082305	-138.769531	-38.867187
65530.983784	1.079088	11.869967	0.091691
65531.989841	0.758020	-437.792969	-21.484375
65531.991843	1.080477	-437.792969	-21.484375
65531.993843	1.081941	-437.792969	-21.484375
65531.995842	1.079075	11.869824	0.119230
65533.069834	1.084280	-142.480469	-46.679687
65533.071838	1.079851	11.878360	0.157206
65534.070402	0.707881	-436.523437	-21.093750
65534.072404	1.070839	-436.523437	-21.093750
65534.074402	1.081667	-436.523437	-21.093750
65534.076403	1.078649	11.865137	0.115213
65535.160494	0.848331	-141.601562	-12.402344
65535.162496	1.086135	-141.601562	-12.402344
65535.164495	1.081604	11.897644	0.086925
65536.154507	1.736544	-439.941406	-20.410156
65536.156511	0.987935	-439.941406	-20.410156
65536.158510	1.083174	-439.941406	-20.410156
65536.160510	1.079206	11.871261	0.114406
65537.244581	0.647163	-145.117187	-12.304687
65537.246580	1.053438	-145.117187	-12.304687
65537.248580	1.081805	-145.117187	-12.304687
65537.250581	1.078497	11.863472	0.094828
65538.240626	0.831108	-437.304687	-20.410156
65538.242627	1.084903	-437.304687	-20.410156
65538.244628	1.080668	11.887346	0.112621
65539.340695	1.084909	-146.191406	-0.390625
65539.342698	1.080209	11.882294	0.089525
65540.325217	0.760710	-441.308594	-18.945312
65540.327220	0.772863	-441.308594	-18.945312
65540.329219	1.081897	-441.308594	-18.945312
65540.333218	1.077009	11.847102	0.110019
65541.423814	0.960891	-143.750000	31.054687
65541.425818	1.084865	-143.750000	31.054687
65541.427816	1.080636	11.887000	0.263593
65542.413810	0.666332	-436.328125	-18.847656
65542.415811	1.059611	-436.328125	-18.847656
65542.417813	1.081672	-436.328125	-18.847656
65542.419811	1.078457	11.863029	0.105956
65543.507872	0.777374	-147.167969	15.527344
65543.509874	1.082101	-147.167969	15.527344
65543.513872	1.078138	-147.167969	15.527344
65543.515874	1.076266	11.838923	0.097680
65544.499899	0.959384	-433.593750	-19.335937
65544.501899	1.085131	-433.593750	-19.335937
65544.505897	1.078483	11.863312	0.268829
65545.595979	0.556152	-147.363281	18.164062
65545.597979	1.014769	-147.363281	18.164062
65545.599979	1.082491	-147.363281	18.164062
65545.603978	1.076648	11.843132	0.097843
65546.590514	1.085801	-435.742187	-19.042969
65546.592515	1.081010	-435.742187	-19.042969
65546.594516	1.078428	11.862708	0.105673
65547.681123	0.628346	-148.242187	7.226562
65547.683123	1.046685	-148.242187	7.226562
65547.685123	1.081933	-148.242187	7.226562
65547.687129	1.078546	11.864002	0.094135
65548.675204	1.085449	-441.210937	-18.652344
65548.677205	1.080852	-441.210937	-18.652344
65548.679204	1.078157	11.859722	0.106777
65549.768264	1.068946	-146.972656	12.695312
65549.770264	1.081407	-146.972656	12.695312
65549.772265	1.078269	11.860963	0.093512
65550.756823	0.524201	-436.523437	-19.921875
65550.758825	0.997915	-436.523437	-19.921875
65550.760825	1.083397	-436.523437	-19.921875
65550.762825	1.079497	11.874470	0.114106
65551.852891	1.052358	-145.507812	11.523437
65551.854893	1.083483	-145.507812	11.523437
65551.856894	1.080081	11.880886	0.096082
65552.852920	1.083163	-433.886719	-20.996094
65552.856919	1.077757	-433.886719	-20.996094
65552.858924	1.075745	11.833198	0.110594
65553.939493	0.547873	-144.238281	4.394531
65553.941496	1.010731	-144.238281	4.394531
65553.943496	1.083068	-144.238281	4.394531
65553.945497	1.079328	11.872607	0.089121
65554.936038	0.860013	-441.113281	-21.679687
65554.938039	1.085055	-441.113281	-21.679687
65554.940039	1.080251	11.882755	0.110448
65556.020089	0.497629	-142.773437	0.683594
65556.022090	0.982129	-142.773437	0.683594
65556.024090	1.082995	-142.773437	0.683594
65556.026091	1.079077	11.869843	0.094376
65557.028156	0.620429	-422.753906	-24.609375
65557.030159	1.043588	-422.753906	-24.609375
65557.032159	1.082049	-422.753906	-24.609375
65557.034160	1.078756	11.866316	0.112809
65558.108181	1.084755	-142.187500	-12.695312
65558.110182	1.080907	11.889978	0.091351
65559.116770	0.527671	-436.621094	-23.339844
65559.118771	0.999572	-436.621094	-23.339844
65559.120769	1.082601	-436.621094	-23.339844
65559.122771	1.078843	11.867273	0.117820
65560.188760	1.080905	-140.429687	-15.429687
65560.190763	1.080657	-140.429687	-15.429687
65560.192762	1.080553	11.886078	0.089593
65561.215353	1.080536	-422.167969	-23.925781
65561.217356	1.078137	-422.167969	-23.925781
65561.219355	1.076373	11.840101	0.108555
65562.271466	0.727100	-136.523437	1.269531
65562.275468	1.080955	-136.523437	1.269531
65562.277467	1.077971	-136.523437	1.269531
65562.279467	1.075893	11.834827	0.095003
65563.304048	0.829230	-430.566406	-21.093750
65563.306049	1.084972	-430.566406	-21.093750
65563.308054	1.080722	11.887940	0.109823
65564.345035	1.599332	-135.449219	14.648437
65564.347038	1.083840	-135.449219	14.648437
65564.349037	1.079659	11.876250	0.273962
65565.393061	0.845390	-424.609375	-18.261719
65565.395063	1.084657	-424.609375	-18.261719
65565.397063	1.080069	11.880761	0.100222
65566.437134	0.742438	-132.324219	68.359375
65566.439136	1.076939	-132.324219	68.359375
65566.441134	1.080565	-132.324219	68.359375
65566.443135	1.077714	11.854856	0.103246
65567.473215	0.689035	-431.250000	-13.574219
65567.475216	1.065181	-431.250000	-13.574219
65567.477216	1.080313	-431.250000	-13.574219
65567.479215	1.077237	11.849602	0.101700
65568.527795	1.059213	-137.695312	74.414062
65568.529798	1.081391	-137.695312	74.414062
65568.531796	1.078213	11.860343	0.105368
65569.560713	1.084380	-427.343750	-12.890625
65569.562714	1.079724	11.876960	0.092548
65570.619272	0.774863	-138.183594	120.312500
65570.621274	1.081308	-138.183594	120.312500
65570.623273	1.080414	-138.183594	120.312500
65570.625273	1.077729	11.855017	0.107228
65571.631391	0.875728	-423.925781	-14.160156
65571.633393	1.085064	-423.925781	-14.160156
65571.635395	1.080251	11.882755	0.097240
65572.715456	0.522299	-143.750000	113.281250
65572.717456	0.996872	-143.750000	113.281250
65572.719459	1.083434	-143.750000	113.281250
65572.721459	1.079541	11.874949	0.107067
65573.717506	1.065223	-432.226562	-16.601562
65573.719507	1.081549	-432.226562	-16.601562
65573.721509	1.078394	11.862336	0.100695
65574.807530	0.879786	-148.535156	59.472656
65574.809532	1.080576	11.886335	0.100322
65575.800118	0.615626	-414.355469	-22.460937
65575.802125	1.041354	-414.355469	-22.460937
65575.804127	1.081446	-414.355469	-22.460937
65575.806131	1.078133	11.859466	0.110828
65576.894170	0.728162	-141.796875	63.769531
65576.896172	1.074486	-141.796875	63.769531
65576.898171	1.080728	-141.796875	63.769531
65576.900171	1.077836	11.856195	0.092792
65577.890173	0.892883	-422.949219	-24.316406
65577.892174	1.084779	-422.949219	-24.316406
65577.894174	1.080045	11.880495	0.112141
65578.976763	1.064323	-140.332031	38.964844
65578.978765	1.081275	-140.332031	38.964844
65578.980765	1.078152	11.859669	0.090888
65579.982815	0.791190	-415.136719	-26.269531
65579.984813	1.083455	-415.136719	-26.269531
65579.986814	1.080663	-415.136719	-26.269531
65579.988814	1.077890	11.856789	0.115547
65581.056914	0.996614	-137.304687	39.550781
65581.058916	1.083526	-137.304687	39.550781
65581.062914	1.077373	11.851099	0.092013
65582.074913	0.546233	-420.800781	-25.195312
65582.076915	1.009404	-420.800781	-25.195312
65582.078916	1.082206	-420.800781	-25.195312
65582.080915	1.078554	11.864092	0.112266
65583.135409	0.447135	-134.570312	51.953125
65583.137411	0.949581	-134.570312	51.953125
65583.139409	0.955058	-134.570312	51.953125
65583.141409	1.080487	11.885361	0.096223
65584.165437	0.935101	-416.796875	-24.121094
65584.167441	1.084345	-416.796875	-24.121094
65584.169438	1.079883	11.878714	0.179431
65585.217477	0.787298	-134.960937	46.289062
65585.219472	1.085757	-134.960937	46.289062
65585.223471	1.081120	-134.960937	46.289062
65585.225472	1.079234	11.871572	0.097075
65586.253473	0.714067	-417.382812	-22.753906
65586.255475	1.072021	-417.382812	-22.753906
65586.257475	1.081291	-417.382812	-22.753906
65586.259474	1.078243	11.860670	0.109063
65587.301510	0.571514	-133.105469	66.503906
65587.303513	1.022053	-133.105469	66.503906
65587.305513	1.081994	-133.105469	66.503906
65587.307515	1.078392	11.862309	0.098537
65588.343508	0.962876	-423.242187	-20.117187
65588.345512	0.970413	-423.242187	-20.117187
65588.347511	1.079862	11.878483	0.281865
65589.389510	1.084216	-134.472656	62.597656
65589.393511	1.076867	11.845534	0.103071
65590.432073	0.883311	-410.937500	-20.703125
65590.436073	1.080657	-410.937500	-20.703125
65590.438073	1.078099	11.859084	0.102775
65591.478089	1.080413	-136.230469	62.792969
65591.480090	1.080341	-136.230469	62.792969
65591.482090	1.077557	11.853129	0.099201
65592.516151	0.685965	-425.390625	-18.164062
65592.518151	1.064644	-425.390625	-18.164062
65592.520153	1.080765	-425.390625	-18.164062
65592.522151	1.077680	11.854476	0.100620
65593.560154	0.558345	-134.277344	87.597656
65593.562155	1.015635	-134.277344	87.597656
65593.564162	1.082165	-134.277344	87.597656
65593.566163	1.078488	11.863364	0.105051
65594.604226	0.452673	-408.398437	-20.117187
65594.606229	0.953224	-408.398437	-20.117187
65594.608229	1.084164	-408.398437	-20.117187
65594.610229	1.079918	11.879096	0.101364
65595.646313	0.891952	-137.011719	73.046875
65595.648315	1.083934	-137.011719	73.046875
65595.650316	1.079347	11.872812	0.104139
65596.694415	1.080683	-420.996094	-18.066406
65596.696414	1.078041	11.858446	0.102200
65597.734967	0.819106	-133.300781	103.027344
65597.736967	1.084501	-133.300781	103.027344
65597.738968	1.080495	11.885448	0.101948
65598.781020	1.070911	-404.882812	-20.410156
65598.783022	1.081013	-404.882812	-20.410156
65598.785023	1.077933	11.857259	0.097912
65599.819065	0.621575	-131.152344	119.531250
65599.821067	1.043635	-131.152344	119.531250
65599.823067	1.081380	-131.152344	119.531250
65599.825067	1.078015	11.858162	0.105933
65600.865093	0.983406	-405.761719	-20.214844
65600.867093	1.083212	-405.761719	-20.214844
65600.869094	1.079266	11.871925	0.375644
65601.905065	0.908003	-136.523437	83.300781
65601.909066	1.081433	-136.523437	83.300781
65601.911066	1.078954	11.868496	0.107966
65602.952050	1.082514	-411.132812	-20.117187
65602.954051	1.078639	-411.132812	-20.117187
65602.956051	1.076406	11.840465	0.104589
65603.994164	0.936912	-136.230469	82.617187
65603.996166	1.084646	-136.230469	82.617187
65603.998166	1.080185	11.882037	0.178057
65605.038222	0.841730	-413.671875	-20.507812
65605.040224	1.085020	-413.671875	-20.507812
65605.042227	1.080430	11.884731	0.103467
65606.082815	0.868393	-131.640625	110.546875
65606.084817	1.085282	-131.640625	110.546875
65606.090817	1.076076	11.836831	0.100111
65607.124877	1.085255	-413.671875	-21.679687
65607.126880	1.083386	-413.671875	-21.679687
65607.128880	1.080396	11.884359	0.104632
65608.167446	0.812908	-133.105469	100.976562
65608.169448	1.083730	-133.105469	100.976562
65608.171448	1.079931	11.879247	0.100461
65609.207430	1.614463	-417.285156	-22.460937
65609.209431	1.069780	-417.285156	-22.460937
65609.211431	1.080925	-417.285156	-22.460937
65609.213432	1.077874	11.856612	0.107270
65610.255464	0.564465	-135.644531	80.371094
65610.257466	1.018459	-135.644531	80.371094
65610.259468	1.081824	-135.644531	80.371094
65610.261467	1.078185	11.860032	0.097864
65611.292056	0.645037	-399.511719	-25.781250
65611.294060	0.660256	-399.511719	-25.781250
65611.296060	1.081694	-399.511719	-25.781250
65611.298059	1.078382	11.862204	0.112632
65612.344470	0.571779	-135.253906	85.937500
65612.346471	1.022295	-135.253906	85.937500
65612.348474	1.082254	-135.253906	85.937500
65612.350472	1.082083	11.902917	0.096363
65613.376527	0.539401	-404.199219	-26.953125
65613.378527	1.005778	-404.199219	-26.953125
65613.380529	1.082243	-404.199219	-26.953125
65613.382528	1.078447	11.862922	0.112428
65614.436592	1.083813	-138.476562	69.140625
65614.438595	1.079067	11.869737	0.093602
65615.463176	0.975156	-407.714844	-28.222656
65615.465178	1.083627	-407.714844	-28.222656
65615.467177	1.079562	11.875187	0.338567
65616.522124	0.506106	-138.183594	84.667969
65616.524126	0.987180	-138.183594	84.667969
65616.526126	1.082924	-138.183594	84.667969
65616.528128	1.079072	11.869789	0.096549
65617.542138	0.537376	-408.691406	-28.613281
65617.544138	1.004557	-408.691406	-28.613281
65617.546139	1.081915	-408.691406	-28.613281
65617.548138	1.081782	11.899603	0.114624
65618.617118	0.977984	-138.574219	104.882812
65618.619119	1.083470	-138.574219	104.882812
65618.621120	1.079470	11.874167	0.337447
65619.623196	0.613683	-399.316406	-28.613281
65619.627197	1.081252	-399.316406	-28.613281
65619.629199	1.077860	-399.316406	-28.613281
65619.631197	1.075676	11.832436	0.111147
65620.709290	0.782600	-140.820312	122.167969
65620.711291	1.082365	-140.820312	122.167969
65620.713289	1.080770	-140.820312	122.167969
65620.715289	1.077985	11.857834	0.093921
65621.707314	1.083482	-408.691406	-25.292969
65621.709318	1.079168	11.870845	0.212375
65622.797794	0.665415	-147.656250	117.675781
65622.801795	1.081096	-147.656250	117.675781
65622.803797	1.077904	-147.656250	117.675781
65622.805797	1.075752	11.833278	0.099422
65623.788804	0.607351	-410.253906	-22.070312
65623.790806	1.037748	-410.253906	-22.070312
65623.792806	1.081225	-410.253906	-22.070312
65623.794805	1.077821	11.856028	0.105583
65624.885435	1.084765	-146.777344	150.781250
65624.887435	1.080046	11.880504	0.103386
65625.881999	0.644410	-400.683594	-19.921875
65625.884001	1.051860	-400.683594	-19.921875
65625.886002	1.081072	-400.683594	-19.921875
65625.888001	1.077871	11.856577	0.098689
65626.967989	1.080114	-143.750000	167.089844
65626.969990	1.079979	11.879768	0.108449
65627.976017	0.886226	-412.597656	-16.796875
65627.978019	1.084210	-412.597656	-16.796875
65627.980019	1.079473	11.874203	0.095232
65629.039013	1.084547	-135.937500	183.593750
65629.041016	1.080078	11.880859	0.115195
65630.075061	1.084848	-405.468750	-17.480469
65630.077063	1.080138	11.881523	0.095309
65631.117633	0.881494	-135.937500	154.785156
65631.119637	1.085192	-135.937500	154.785156
65631.121637	1.080425	11.884678	0.115717
65632.161730	0.784443	-395.410156	-20.117187
65632.163727	1.085009	-395.410156	-20.117187
65632.165726	1.083458	-395.410156	-20.117187
65632.167727	1.080496	11.885458	0.098374
65633.205856	0.692703	-130.175781	166.699219
65633.207859	1.066367	-130.175781	166.699219
65633.209858	1.080678	-130.175781	166.699219
65633.211860	1.077667	11.854334	0.105390
65634.245816	0.585470	-408.984375	-21.289062
65634.247818	1.028610	-408.984375	-21.289062
65634.249819	1.082137	-408.984375	-21.289062
65634.251818	1.078585	11.864437	0.110773
65635.290816	0.719630	-132.617187	134.375000
65635.292814	1.072726	-132.617187	134.375000
65635.294816	1.080651	-132.617187	134.375000
65635.296814	1.077690	11.854591	0.103430
65636.334853	0.605258	-392.675781	-25.585937
65636.336854	1.037328	-392.675781	-25.585937
65636.338854	1.081888	-392.675781	-25.585937
65636.340854	1.078423	11.862656	0.103275
65637.380874	0.971838	-131.445312	140.722656
65637.382875	1.082121	-131.445312	140.722656
65637.386874	1.075718	11.832896	0.102147
65638.422952	1.083749	-402.148437	-26.464844
65638.424954	1.079200	11.871199	0.105522
65639.470991	1.084869	-137.304687	101.562500
65639.472991	1.083215	-137.304687	101.562500
65639.474991	1.080213	11.882339	0.096636
65640.505072	0.729234	-386.035156	-29.003906
65640.507072	1.074136	-386.035156	-29.003906
65640.509073	1.080127	-386.035156	-29.003906
65640.511071	1.077243	11.849672	0.109738
65641.557118	0.568668	-134.960937	118.750000
65641.559121	1.020635	-134.960937	118.750000
65641.561120	1.081929	-134.960937	118.750000
65641.563120	1.078314	11.861451	0.099379
65642.589199	0.538653	-394.824219	-29.003906
65642.591201	1.005375	-394.824219	-29.003906
65642.593202	1.082372	-394.824219	-29.003906
65642.595202	1.078632	11.864950	0.112092
65643.645236	1.084885	-136.523437	114.062500
65643.647239	1.080019	11.880212	0.099011
65644.673841	0.483804	-402.636719	-27.636719
65644.675845	0.973390	-402.636719	-27.636719
65644.677846	1.082991	-402.636719	-27.636719
65644.679848	1.078969	11.868655	0.115717
65645.731838	0.800405	-132.421875	142.285156
65645.733839	1.083071	-132.421875	142.285156
65645.735837	1.079929	11.879219	0.097902
65646.771831	1.080917	-396.289062	-28.417969
65646.773834	1.077880	11.856683	0.105193
65647.816426	0.731970	-133.593750	137.011719
65647.818430	1.075050	-133.593750	137.011719
65647.820428	1.080512	-133.593750	137.011719
65647.822428	1.077580	11.853377	0.098790
65648.854499	1.062609	-397.265625	-26.953125
65648.856502	1.081113	-397.265625	-26.953125
65648.858503	1.077960	11.857560	0.106075
65649.897075	0.701608	-133.886719	133.886719
65649.899076	1.068442	-133.886719	133.886719
65649.901075	1.080516	-133.886719	133.886719
65649.903078	1.077473	11.852207	0.099866
65650.941711	0.741951	-389.160156	-25.683594
65650.943713	1.076766	-389.160156	-25.683594
65650.945713	1.080578	-389.160156	-25.683594
65650.947713	1.077618	11.853793	0.105724
65651.987784	1.049437	-128.027344	186.035156
65651.989786	1.081331	-128.027344	186.035156
65651.991786	1.078017	11.858190	0.099230
65653.034260	1.081401	-384.863281	-23.730469
65653.036260	1.078134	-384.863281	-23.730469
65653.038263	1.075971	11.835678	0.100471
65654.072240	1.000408	-133.886719	167.578125
65654.074239	1.007133	-133.886719	167.578125
65654.076240	1.078198	11.860183	0.107005
65655.114795	0.549084	-392.382812	-20.605469
65655.116796	1.010686	-392.382812	-20.605469
65655.118795	1.081855	-392.382812	-20.605469
65655.120795	1.078238	11.860617	0.098403
65656.162869	1.083893	-129.980469	220.605469
65656.164870	1.079684	11.876526	0.209239
65657.196890	0.889688	-395.605469	-19.335937
65657.198891	1.084853	-395.605469	-19.335937
65657.200890	1.080150	11.881647	0.098253
65658.252983	0.721440	-137.402344	208.105469
65658.254986	1.072779	-137.402344	208.105469
65658.256985	1.080263	-137.402344	208.105469
65658.258985	1.077362	11.850984	0.110622
65659.277575	0.870380	-393.066406	-19.921875
65659.279579	1.084750	-393.066406	-19.921875
65659.281578	1.080035	11.880381	0.097184
65660.345608	0.609892	-140.917969	211.718750
65660.347608	1.039379	-140.917969	211.718750
65660.349609	1.082191	-140.917969	211.718750
65660.351610	1.078769	11.866457	0.108271
65661.353574	0.700423	-390.332031	-22.070312
65661.355577	1.068296	-390.332031	-22.070312
65661.357577	1.080615	-390.332031	-22.070312
65661.359577	1.077561	11.853172	0.104011
65662.439621	0.853979	-142.871094	207.031250
65662.441623	1.083728	-142.871094	207.031250
65662.443623	1.079205	11.871251	0.103203
65663.437632	0.489059	-393.750000	-25.390625
65663.439636	0.976570	-393.750000	-25.390625
65663.441636	1.082865	-393.750000	-25.390625
65663.443637	1.078924	11.868159	0.104995
65664.528252	0.769906	-144.726562	176.269531
65664.530254	1.081038	-144.726562	176.269531
65664.532255	1.080647	-144.726562	176.269531
65664.534255	1.077909	11.857001	0.099228
65665.530247	1.084096	-388.183594	-28.613281
65665.532249	1.079477	-388.183594	-28.613281
65665.534247	1.077050	11.847553	0.107088
65666.612853	0.702032	-141.601562	167.480469
65666.614855	1.068609	-141.601562	167.480469
65666.616854	1.080480	-141.601562	167.480469
65666.618856	1.077472	11.852189	0.095509
65667.616870	0.830277	-376.074219	-31.445312
65667.620870	1.079790	-376.074219	-31.445312
65667.622873	1.077070	11.847767	0.107256
65668.692897	0.509758	-140.820312	152.246094
65668.694898	0.989093	-140.820312	152.246094
65668.696899	1.082559	-140.820312	152.246094
65668.698899	1.078748	11.866226	0.096835
65669.704945	0.600489	-379.101562	-32.324219
65669.706945	1.035157	-379.101562	-32.324219
65669.708947	1.081780	-379.101562	-32.324219
65669.710945	1.078285	11.861140	0.109873
65670.779006	0.832524	-139.160156	150.195312
65670.783004	1.080060	-139.160156	150.195312
65670.785013	1.077435	11.851781	0.093619
65671.795030	0.884759	-385.253906	-32.714844
65671.797034	1.085151	-385.253906	-32.714844
65671.799035	1.080388	11.884272	0.113359
65672.865617	0.889845	-139.550781	140.625000
65672.867618	1.081837	-139.550781	140.625000
65672.869620	1.078980	11.868780	0.091819
65673.886184	1.083621	-377.148437	-33.300781
65673.888186	1.079205	11.871251	0.157314
65674.948174	0.693232	-135.253906	170.605469
65674.950177	1.066639	-135.253906	170.605469
65674.952176	1.080906	-135.253906	170.605469
65674.954176	1.080787	11.888658	0.093402
65675.974196	1.067708	-368.750000	-34.082031
65675.976197	1.080552	-368.750000	-34.082031
65675.978196	1.077514	11.852651	0.109016
65677.034733	1.545252	-134.765625	175.488281
65677.036735	1.081949	-134.765625	175.488281
65677.038734	1.078450	11.862948	0.094514
65678.057169	0.727231	-369.140625	-34.277344
65678.059170	1.074326	-369.140625	-34.277344
65678.063170	1.077747	-369.140625	-34.277344
65678.069170	1.072958	11.802544	0.112372
65679.117166	0.498269	-138.964844	149.609375
65679.119168	0.982143	-138.964844	149.609375
65679.121169	1.082366	-138.964844	149.609375
65679.123168	1.078439	11.862823	0.098336
65680.143264	0.997349	-369.824219	-34.082031
65680.145266	1.081734	-369.824219	-34.082031
65680.147266	1.077875	11.856629	0.112332
65681.207708	0.902862	-136.621094	170.312500
65681.209709	1.084572	-136.621094	170.312500
65681.211709	1.079976	11.879733	0.094800
65682.230218	0.524051	-368.652344	-33.691406
65682.232219	0.997214	-368.652344	-33.691406
65682.234220	1.082302	-368.652344	-33.691406
65682.236219	1.078514	11.863656	0.109882
65683.296287	0.809642	-136.523437	178.808594
65683.298290	1.083763	-136.523437	178.808594
65683.302287	1.077452	11.851976	0.098005
65684.314314	1.084455	-379.589844	-32.910156
65684.316315	1.079729	11.877021	0.112409
65685.384902	0.718055	-137.500000	187.597656
65685.386902	1.072145	-137.500000	187.597656
65685.390900	1.077463	-137.500000	187.597656
65685.392904	1.075214	11.827357	0.095250
65686.396951	0.808190	-374.316406	-32.714844
65686.398953	1.084077	-374.316406	-32.714844
65686.400952	1.080476	11.885237	0.111006
65687.472965	0.485492	-144.628906	162.890625
65687.474969	0.974233	-144.628906	162.890625
65687.478976	1.078518	-144.628906	162.890625
65687.482974	1.074285	11.817140	0.099170
65688.480980	0.591727	-376.953125	-31.250000
65688.482981	1.030805	-376.953125	-31.250000
65688.484984	1.080976	-376.953125	-31.250000
65688.488983	1.075210	11.827312	0.106357
65689.565069	1.085531	-145.019531	189.550781
65689.567070	1.083839	11.922228	0.099986
65690.563679	1.022548	-386.523437	-28.027344
65690.565682	1.081457	-386.523437	-28.027344
65690.567681	1.077983	11.857817	0.584364
65691.653676	1.066955	-145.507812	213.085937
65691.655679	1.080790	-145.507812	213.085937
65691.657680	1.077687	11.854556	0.102661
65692.652244	0.962564	-373.925781	-26.171875
65692.654245	1.083923	-373.925781	-26.171875
65692.656245	1.079790	11.877695	0.100356
65693.736304	0.632188	-144.824219	228.125000
65693.740304	1.080557	-144.824219	228.125000
65693.742306	1.077275	-144.824219	228.125000
65693.744309	1.075046	11.825505	0.105217
65694.744390	0.755423	-377.343750	-23.535156
65694.746393	1.078493	-377.343750	-23.535156
65694.748395	1.079950	-377.343750	-23.535156
65694.750395	1.077087	11.847961	0.096001
65695.818466	0.965456	-135.351562	265.917969
65695.820468	1.082646	-135.351562	265.917969
65695.822469	1.078613	11.864747	0.300146
65696.838469	0.983219	-386.816406	-21.679687
65696.840470	1.081901	-386.816406	-21.679687
65696.842471	1.078028	11.858313	0.096139
65697.895068	0.953189	-129.394531	274.511719
65697.897071	1.083936	-129.394531	274.511719
65697.899070	1.079671	11.876384	0.110405
65698.933558	1.083750	-381.835937	-22.265625
65698.935560	1.079794	11.877730	0.388939
65699.974188	0.548208	-131.738281	241.796875
65699.976189	1.010367	-131.738281	241.796875
65699.978191	1.082315	-131.738281	241.796875
65699.980193	1.078584	11.864428	0.111171
65701.018288	0.449218	-371.777344	-25.097656
65701.022289	1.084230	-371.777344	-25.097656
65701.024289	1.080000	-371.777344	-25.097656
65701.026293	1.079906	11.878971	0.098184
65702.060302	0.869785	-133.300781	214.648437
65702.062304	1.084056	-133.300781	214.648437
65702.064304	1.079294	11.872236	0.108592
65703.109288	0.957877	-377.636719	-26.562500
65703.113288	1.078257	-377.636719	-26.562500
65703.115289	1.075763	11.833393	0.100820
65704.145855	1.002465	-134.863281	198.046875
65704.147855	1.081757	-134.863281	198.046875
65704.151853	1.075674	11.832417	0.470914
65705.193960	0.919033	-370.507812	-29.101562
65705.195962	1.084651	-370.507812	-29.101562
65705.197961	1.080048	11.880530	0.100141
65706.235941	1.084167	-128.417969	232.421875
65706.237943	1.080057	11.880629	0.101040
65707.277954	0.703866	-364.746094	-30.468750
65707.279956	1.068811	-364.746094	-30.468750
65707.281956	1.080241	-364.746094	-30.468750
65707.283956	1.077271	11.849982	0.105675
65708.324061	1.037744	-134.570312	195.019531
65708.326066	1.081005	-134.570312	195.019531
65708.328063	1.077587	11.853457	0.098387
65709.367070	0.745557	-367.480469	-31.054687
65709.369074	1.080570	-367.480469	-31.054687
65709.371072	1.084421	-367.480469	-31.054687
65709.373073	1.081307	11.894374	0.104621
65710.409124	1.056375	-133.203125	203.515625
65710.411125	1.080880	-133.203125	203.515625
65710.413126	1.077630	11.853927	0.102185
65711.451714	0.687613	-370.019531	-30.664062
65711.453716	1.064656	-370.019531	-30.664062
65711.455718	1.080163	-370.019531	-30.664062
65711.457716	1.077108	11.848183	0.105903
65712.493739	1.032511	-135.351562	194.824219
65712.497740	1.078032	-135.351562	194.824219
65712.499744	1.075823	11.834057	0.101981
65713.538715	1.072829	-366.894531	-30.468750
65713.540715	1.079988	-366.894531	-30.468750
65713.542715	1.079840	11.878244	0.106774
65714.582791	0.630720	-127.636719	249.414062
65714.584794	1.081097	-127.636719	249.414062
65714.586792	1.077786	11.855646	0.102980
65715.627312	1.046064	-361.914062	-29.394531
65715.629315	1.081167	-361.914062	-29.394531
65715.631314	1.077882	11.856700	0.738796
65716.665362	0.541920	-132.226562	231.835937
65716.667365	1.006618	-132.226562	231.835937
65716.669366	1.081396	-132.226562	231.835937
65716.671363	1.077764	11.855406	0.106351
65717.715878	0.997474	-371.972656	-26.660156
65717.717880	1.082721	-371.972656	-26.660156
65717.719880	1.078941	11.868345	0.438954
65718.756458	1.024770	-127.734375	272.265625
65718.758460	1.081374	-127.734375	272.265625
65718.760463	1.077819	11.856009	0.104723
65719.800438	0.947167	-365.527344	-25.585937
65719.802440	1.084024	-365.527344	-25.585937
65719.804441	1.079790	11.877686	0.097507
65720.844470	0.849715	-127.929687	289.843750
65720.846473	1.085112	-127.929687	289.843750
65720.848472	1.080500	11.885503	0.106923
65721.880494	0.783058	-375.585937	-23.437500
65721.882497	1.082440	-375.585937	-23.437500
65721.884497	1.080798	-375.585937	-23.437500
65721.886497	1.078045	11.858490	0.096403
65722.933058	0.754890	-137.402344	261.425781
65722.935060	1.078258	-137.402344	261.425781
65722.937060	1.079931	-137.402344	261.425781
65722.939060	1.077081	11.847891	0.114354
65723.962042	0.959159	-373.339844	-23.925781
65723.966042	1.079873	-373.339844	-23.925781
65723.968043	1.077537	11.852907	0.268292
65725.026597	1.830485	-139.062500	276.855469
65725.028599	1.083792	-139.062500	276.855469
65725.030600	1.079091	11.870003	0.112080
65726.042689	0.936765	-371.875000	-25.488281
65726.044690	1.083528	-371.875000	-25.488281
65726.046693	1.079230	11.871527	0.096957
65727.119327	0.786776	-139.746094	282.714844
65727.121327	1.082307	-139.746094	282.714844
65727.123327	1.079642	-139.746094	282.714844
65727.125326	1.079517	11.874681	0.108403
65728.123407	0.927004	-359.667969	-29.589844
65728.125407	1.084237	-359.667969	-29.589844
65728.127408	1.079852	11.878377	0.142845
65729.207340	0.546025	-142.480469	260.449219
65729.209340	1.009257	-142.480469	260.449219
65729.211340	1.082267	-142.480469	260.449219
65729.213340	1.078626	11.864889	0.104787
65730.207385	0.711610	-355.957031	-32.519531
65730.209385	1.070778	-355.957031	-32.519531
65730.211387	1.080476	-355.957031	-32.519531
65730.213386	1.077510	11.852615	0.106167
65731.297910	0.946227	-139.746094	258.789062
65731.301909	1.078700	-139.746094	258.789062
65731.303910	1.076327	11.839596	0.097701
65732.297971	1.039985	-366.796875	-33.496094
65732.299973	1.080748	-366.796875	-33.496094
65732.301974	1.077424	11.851665	0.105281
65733.384476	1.084237	-141.796875	230.175781
65733.386480	1.079519	11.874708	0.095923
65734.387088	1.054932	-363.671875	-35.156250
65734.389090	1.079927	-363.671875	-35.156250
65734.391089	1.076681	11.843486	0.105322
65735.467676	0.953389	-138.183594	239.062500
65735.469680	1.082705	-138.183594	239.062500
65735.471679	1.078608	11.864684	0.236058
65736.473751	0.575430	-354.687500	-36.328125
65736.475753	1.023439	-354.687500	-36.328125
65736.477751	1.081262	-354.687500	-36.328125
65736.479752	1.077722	11.854945	0.107211
65737.547832	0.819227	-141.210937	215.429687
65737.549834	1.085060	-141.210937	215.429687
65737.551836	1.081055	11.891601	0.098051
65738.559855	0.893422	-359.277344	-36.425781
65738.561857	1.084679	-359.277344	-36.425781
65738.563857	1.079967	11.879636	0.110596
65739.635919	0.594155	-141.015625	216.894531
65739.639921	1.081643	-141.015625	216.894531
65739.643920	1.075831	-141.015625	216.894531
65739.645922	1.074160	11.815756	0.096037
65740.648907	0.910678	-358.203125	-36.914062
65740.650911	1.083858	-358.203125	-36.914062
65740.652908	1.079325	11.872572	0.107523
65741.720939	0.635277	-140.917969	220.019531
65741.724939	1.081153	-140.917969	220.019531
65741.726941	1.077782	-140.917969	220.019531
65741.728943	1.075517	11.830688	0.097290
65742.733543	0.863792	-360.644531	-37.011719
65742.735543	1.084910	-360.644531	-37.011719
65742.737543	1.080137	11.881506	0.107438
65743.810102	0.686946	-137.500000	247.363281
65743.812104	1.064924	-137.500000	247.363281
65743.814104	1.080773	-137.500000	247.363281
65743.816104	1.077693	11.854627	0.096363
65744.818145	0.796411	-351.562500	-36.816406
65744.820145	1.082020	-351.562500	-36.816406
65744.824145	1.076263	-351.562500	-36.816406
65744.826145	1.074228	11.816510	0.108463
65745.900183	0.955611	-142.773437	225.781250
65745.902185	1.083352	-142.773437	225.781250
65745.904185	1.079189	11.871083	0.094040
65746.904703	1.072487	-357.617187	-35.742187
65746.906705	1.080689	-357.617187	-35.742187
65746.910702	1.075583	11.831408	0.108379
65747.990795	1.083786	-143.261719	238.476562
65747.992798	1.079106	11.870162	0.094456
65748.986832	0.522434	-350.000000	-35.351562
65748.988834	0.543804	-350.000000	-35.351562
65748.990835	1.082021	-350.000000	-35.351562
65748.992834	1.078300	11.861300	0.108487
65750.073725	0.894302	-142.089844	266.699219
65750.075727	1.083882	-142.089844	266.699219
65750.077727	1.079263	11.871890	0.101193
65751.073801	1.011915	-366.210937	-31.542969
65751.075801	1.082053	-366.210937	-31.542969
65751.077801	1.078397	11.862364	0.105128
65752.162398	0.823841	-145.117187	266.406250
65752.166395	1.079885	-145.117187	266.406250
65752.170398	1.075128	11.826408	0.102626
65753.163345	1.068829	-351.464844	-30.078125
65753.165345	1.080279	-351.464844	-30.078125
65753.167345	1.077282	11.850098	0.098843
65754.243834	0.971078	-143.652344	279.003906
65754.245835	1.082838	-143.652344	279.003906
65754.247835	1.078753	11.866281	0.109926
65755.254411	0.707794	-367.578125	-25.976562
65755.256413	1.069984	-367.578125	-25.976562
65755.258412	1.080522	-367.578125	-25.976562
65755.260412	1.077473	11.852207	0.095021
65756.323448	0.702357	-137.304687	303.417969
65756.329446	1.077312	-137.304687	303.417969
65756.331447	1.075107	-137.304687	303.417969
65756.333447	1.073576	11.809340	0.111756
65757.345526	1.077646	-368.945312	-25.097656
65757.347530	1.079935	-368.945312	-25.097656
65757.349528	1.077108	11.848192	0.095829
65758.404078	0.668293	-130.371094	318.945312
65758.406081	1.059228	-130.371094	318.945312
65758.408079	1.080246	-130.371094	318.945312
65758.410080	1.077130	11.848433	0.112135
65759.440147	0.610951	-361.132812	-26.171875
65759.444145	1.080771	-361.132812	-26.171875
65759.446146	1.077403	-361.132812	-26.171875
65759.448148	1.075083	11.825912	0.093648
65760.484196	0.496216	-126.953125	320.800781
65760.486196	0.980771	-126.953125	320.800781
65760.488195	1.082370	-126.953125	320.800781
65760.490196	1.078503	11.863533	0.113652
65761.530696	0.985257	-366.113281	-26.660156
65761.532700	1.082032	-366.113281	-26.660156
65761.534699	1.078194	11.860138	0.095743
65762.572716	1.084579	-127.050781	307.226562
65762.574717	1.080072	11.880787	0.107841
65763.618803	0.799895	-354.296875	-29.296875
65763.620807	1.082932	-354.296875	-29.296875
65763.622807	1.079765	11.877412	0.097297
65764.654765	0.718143	-132.812500	267.773437
65764.656768	1.072004	-132.812500	267.773437
65764.658767	1.080049	-132.812500	267.773437
65764.660767	1.077141	11.848546	0.106279
65765.702812	0.580207	-359.375000	-30.175781
65765.704813	1.025573	-359.375000	-30.175781
65765.706814	1.081136	-359.375000	-30.175781
65765.708813	1.077622	11.853847	0.102818
65766.745429	1.048967	-127.832031	292.089844
65766.747431	1.080437	-127.832031	292.089844
65766.749430	1.077079	11.847864	0.100950
65767.787557	0.543216	-348.632812	-32.617187
65767.789561	1.007121	-348.632812	-32.617187
65767.791564	1.081064	-348.632812	-32.617187
65767.793565	1.077425	11.851675	0.103739
65768.831603	1.082896	-132.128906	268.066406
65768.833605	1.078741	-132.128906	268.066406
65768.835606	1.076303	11.839331	0.104547
65769.878195	0.958555	-354.589844	-32.324219
65769.880197	1.084070	-354.589844	-32.324219
65769.882197	1.079850	11.878351	0.267576
65770.916831	0.526613	-127.343750	294.140625
65770.918833	0.998222	-127.343750	294.140625
65770.920832	1.081427	-127.343750	294.140625
65770.922832	1.077645	11.854095	0.101726
65771.962830	0.914007	-359.277344	-31.835937
65771.964833	1.083867	-359.277344	-31.835937
65771.966833	1.079301	11.872314	0.100464
65773.002893	0.838907	-127.929687	294.921875
65773.004894	0.850752	-127.929687	294.921875
65773.006893	1.079310	11.872414	0.103477
65774.050931	0.702021	-344.921875	-32.031250
65774.052932	1.068779	-344.921875	-32.031250
65774.054932	1.080777	-344.921875	-32.031250
65774.056931	1.077726	11.854980	0.100140
65775.088987	1.050544	-131.347656	283.398437
65775.090988	1.080408	-131.347656	283.398437
65775.092987	1.077173	11.848902	0.106483
65776.135576	0.646028	-354.101562	-29.980469
65776.137576	1.052302	-354.101562	-29.980469
65776.139576	1.080777	-354.101562	-29.980469
65776.141577	1.077517	11.852686	0.100134
65777.177571	1.006063	-130.371094	297.265625
65777.179572	1.082091	-130.371094	297.265625
65777.181572	1.078323	11.861547	0.487775
65778.222603	1.064394	-355.175781	-27.929687
65778.224605	1.080206	-355.175781	-27.929687
65778.226606	1.077217	11.849388	0.099410
65779.264593	0.558299	-124.609375	335.742187
65779.266597	1.014992	-124.609375	335.742187
65779.268595	1.081169	-124.609375	335.742187
65779.270597	1.077557	11.853129	0.108662
65780.306644	0.964372	-358.300781	-26.269531
65780.308645	1.084160	-358.300781	-26.269531
65780.310645	1.080014	11.880159	0.273635
65781.353638	0.580759	-132.226562	317.773437
65781.355640	1.025756	-132.226562	317.773437
65781.357640	1.080900	-132.226562	317.773437
65781.359639	1.077407	11.851472	0.111546
65782.385708	1.991588	-354.199219	-27.148437
65782.387710	1.009841	-354.199219	-27.148437
65782.389711	1.081768	-354.199219	-27.148437
65782.391710	1.078090	11.858987	0.095617
65783.447809	0.867651	-138.085937	310.253906
65783.449811	1.085018	-138.085937	310.253906
65783.451811	1.080289	11.883181	0.108014
65784.467797	0.887246	-348.242187	-28.417969
65784.469798	1.084031	-348.242187	-28.417969
65784.471798	1.079369	11.873060	0.094701
65785.539865	0.611977	-139.355469	318.750000
65785.541872	1.039313	-139.355469	318.750000
65785.543878	1.080731	-139.355469	318.750000
65785.545883	1.077340	11.850744	0.106406
65786.547897	0.719937	-346.875000	-30.273437
65786.549901	0.745156	-346.875000	-30.273437
65786.551903	1.080122	-346.875000	-30.273437
65786.553907	1.077088	11.847971	0.099144
65787.631986	1.083567	-144.042969	297.265625
65787.633986	1.078987	11.868859	0.104689
65788.632543	0.662350	-346.191406	-33.105469
65788.634542	1.057349	-346.191406	-33.105469
65788.636542	1.080250	-346.191406	-33.105469
65788.638541	1.077069	11.847758	0.100832
65789.718636	0.832225	-139.746094	310.546875
65789.720637	1.084165	-139.746094	310.546875
65789.722638	1.079804	11.877846	0.100755
65790.720595	1.258425	-336.718750	-36.035156
65790.722597	1.078681	11.865491	0.226267
65791.802599	0.598538	-144.628906	273.535156
65791.804601	1.034068	-144.628906	273.535156
65791.806601	1.081500	-144.628906	273.535156
65791.808600	1.078036	11.858393	0.102003
65792.806548	0.710643	-339.648437	-37.402344
65792.808551	1.070670	-339.648437	-37.402344
65792.810552	1.080531	-339.648437	-37.402344
65792.812550	1.077558	11.853137	0.103971
65793.888574	0.880423	-143.457031	268.945312
65793.890575	1.084553	-143.457031	268.945312
65793.892575	1.079728	11.877005	0.098184
65794.897597	1.074760	-344.140625	-38.281250
65794.899603	1.079722	-344.140625	-38.281250
65794.901606	1.076782	11.844604	0.103335
65795.974218	1.021144	-137.207031	298.535156
65795.976220	1.082124	-137.207031	298.535156
65795.978222	1.078577	11.864348	0.562375
65796.980291	0.686833	-334.863281	-39.257812
65796.982296	1.064685	-334.863281	-39.257812
65796.984304	1.080499	-334.863281	-39.257812
65796.986308	1.077405	11.851454	0.108336
65798.062353	0.872266	-142.480469	267.871094
65798.064357	1.084531	-142.480469	267.871094
65798.066355	1.079803	11.877828	0.095624
65799.066353	0.969526	-337.500000	-39.062500
65799.068357	1.082006	-337.500000	-39.062500
65799.070355	1.078103	11.859129	0.322533
65800.150378	1.080621	-143.750000	265.625000
65800.152381	1.077373	-143.750000	265.625000
65800.154382	1.075166	11.826826	0.098568
65801.154451	0.777802	-343.750000	-38.769531
65801.156453	1.081088	-343.750000	-38.769531
65801.158455	1.079857	-343.750000	-38.769531
65801.160454	1.077152	11.848671	0.106986
65802.232564	0.971541	-142.871094	276.269531
65802.234566	1.082160	-142.871094	276.269531
65802.236567	1.078156	11.859714	0.098698
65803.241102	1.072729	-345.312500	-37.792969
65803.243105	1.080008	-345.312500	-37.792969
65803.245105	1.077058	11.847643	0.104732
65804.321699	0.998845	-139.550781	302.636719
65804.323701	1.081067	-139.550781	302.636719
65804.325701	1.077336	11.850700	0.098645
65805.323797	0.678048	-336.132812	-37.011719
65805.325795	1.062071	-336.132812	-37.011719
65805.327797	1.080307	-336.132812	-37.011719
65805.329797	1.077178	11.848954	0.106139
65806.409913	0.845817	-137.597656	328.125000
65806.411915	1.085084	-137.597656	328.125000
65806.413915	1.080500	11.885503	0.101682
65807.413932	1.096334	-333.105469	-35.449219
65807.417931	1.079126	-333.105469	-35.449219
65807.419933	1.076889	11.845782	0.099676
65808.494010	0.650819	-144.824219	303.808594
65808.496010	1.053573	-144.824219	303.808594
65808.498011	1.080209	-144.824219	303.808594
65808.502011	1.074699	11.821686	0.107084
65809.499011	0.992278	-342.675781	-32.128906
65809.501014	1.081398	-342.675781	-32.128906
65809.503015	1.081225	11.893470	0.102104
65810.579097	0.710415	-142.871094	318.847656
65810.581099	1.070249	-142.871094	318.847656
65810.583098	1.080139	-142.871094	318.847656
65810.585098	1.077120	11.848325	0.108758
65811.586081	0.544516	-347.753906	-29.980469
65811.588086	1.008118	-347.753906	-29.980469
65811.590092	1.081757	-347.753906	-29.980469
65811.592093	1.078086	11.858942	0.099430
65812.660140	0.780460	-136.230469	342.968750
65812.662141	1.081450	-136.230469	342.968750
65812.664144	1.079801	-136.230469	342.968750
65812.666143	1.077056	11.847616	0.106264
65813.682260	1.083461	-350.781250	-28.417969
65813.686262	1.076374	11.840118	0.096472
